# Complex refractive index of amorphous GeSbTe (GST)
#
#REFERENCES: Du, K., Li, Q., Lyu, Y., Ding, J., Lu, Y., Cheng, Z., Qiu, M. (2016). Control over emissivity of zero-static-power thermal emitters based on phase-changing material GST. Light: Science &#38; Applications 2017 6:1, 6(1), e16194â€“e16194
#
#DATA:
# 1st column: wavelength (um)
# 2nd column: refractive index
# 3nd column: extinction coefficient
#  - type: tabulated nk
#    data: |
       2.600000	4.437470	0.010035
2.700000	4.405812	0.009374
2.800000	4.374154	0.008635
2.900000	4.353038	0.007307
3.000000	4.332407	0.006210
3.100000	4.318535	0.007432
3.200000	4.305153	0.008567
3.300000	4.295571	0.008513
3.400000	4.286370	0.008460
3.500000	4.281171	0.008406
3.600000	4.276492	0.008352
3.700000	4.270523	0.008298
3.800000	4.264346	0.008245
3.900000	4.263300	0.007452
4.000000	4.263246	0.006657
4.100000	4.262661	0.007233
4.200000	4.261955	0.007846
4.300000	4.261085	0.007897
4.400000	4.260171	0.007917
4.500000	4.257723	0.007869
4.600000	4.254808	0.007815
4.700000	4.250527	0.007641
4.800000	4.245773	0.007454
4.900000	4.244402	0.006238
5.000000	4.244348	0.004880
5.100000	4.244294	0.005865
5.200000	4.244241	0.007250
5.300000	4.244187	0.007439
5.400000	4.244133	0.007385
5.500000	4.245426	0.007332
5.600000	4.247448	0.007278
5.700000	4.251601	0.007213
5.800000	4.257032	0.007144
5.900000	4.259165	0.006591
6.000000	4.259112	0.005885
6.100000	4.259058	0.006151
6.200000	4.259004	0.006764
6.300000	4.258951	0.006902
6.400000	4.258897	0.006848
6.500000	4.258843	0.006795
6.600000	4.258789	0.006741
6.700000	4.258736	0.006687
6.800000	4.258682	0.006634
6.900000	4.258628	0.005904
7.000000	4.258575	0.004798
7.100000	4.258671	0.004966
7.200000	4.258943	0.005920
7.300000	4.259590	0.006301
7.400000	4.260723	0.006292
7.500000	4.261366	0.006258
7.600000	4.261313	0.006204
7.700000	4.261259	0.006093
7.800000	4.261205	0.005936
7.900000	4.261151	0.005289
8.000000	4.261098	0.004198
8.100000	4.261044	0.004129
8.200000	4.260990	0.005084
8.300000	4.260937	0.005621
8.400000	4.260883	0.005701
8.500000	4.260829	0.005721
8.600000	4.260775	0.005667
8.700000	4.260722	0.005581
8.800000	4.260668	0.005454
8.900000	4.260614	0.005019
9.000000	4.260561	0.004135
9.100000	4.260507	0.003913
9.200000	4.260453	0.004764
9.300000	4.260400	0.005291
9.400000	4.260346	0.005237
9.500000	4.260292	0.005183
9.600000	4.260238	0.005130
9.700000	4.260185	0.005058
9.800000	4.260131	0.004945
9.900000	4.260077	0.004546
10.000000	4.260024	0.003440
10.100000	4.259970	0.002904
10.200000	4.259916	0.003962
10.300000	4.259862	0.004754
10.400000	4.259809	0.004700
10.500000	4.259755	0.004646
10.600000	4.259701	0.004593
10.700000	4.259648	0.004462
10.800000	4.259594	0.004008
10.900000	4.259540	0.003451
11.000000	4.259487	0.002390
11.100000	4.259433	0.001679
11.200000	4.259379	0.003033
11.300000	4.259325	0.004217
11.400000	4.259272	0.004163
11.500000	4.259218	0.004109
11.600000	4.259164	0.004056
11.700000	4.259111	0.003988
11.800000	4.259057	0.003741
11.900000	4.259003	0.003496
12.000000	4.258949	0.003264
12.100000	4.258896	0.003047
12.200000	4.258842	0.003364
12.300000	4.258788	0.003680
12.400000	4.258735	0.003626
12.500000	4.258681	0.003572
12.600000	4.258627	0.003519
12.700000	4.258574	0.003465
12.800000	4.258520	0.002646
12.900000	4.258466	0.001792
13.000000	4.258412	0.001960
13.100000	4.258359	0.002203
13.200000	4.258305	0.002634
13.300000	4.258251	0.003085
13.400000	4.258198	0.003089
13.500000	4.258144	0.003035
13.600000	4.258090	0.002982
13.700000	4.258036	0.002928
13.800000	4.257983	0.002266
13.900000	4.257929	0.001485
14.000000	4.257875	0.001719
14.100000	4.257822	0.002184
14.200000	4.257768	0.002403
14.300000	4.257714	0.002557
14.400000	4.257661	0.002529
14.500000	4.257607	0.002446
14.600000	4.257553	0.001845
14.700000	4.257499	0.001064
14.800000	4.257537	0.001304
14.900000	4.257646	0.001942
15.000000	4.257870	0.002000