# this file is a custom refractive index
# REFERENCE 1: Palik Handbook of Optical Constants
#
# First column: 	Wavelength (in um)
# Second column:	refractive index
# Third column:		extinction coefficient
#
0.001240	0.970000	1.80000E-05
0.001378	0.970000	2.30000E-05
0.001550	0.970000	4.00000E-05
0.001771	0.970000	7.00000E-05
0.002066	0.970000	1.10000E-04
0.002480	0.970000	2.10000E-04
0.003100	0.970000	5.00000E-04
0.004133	0.970000	1.40000E-03
0.004379	0.970000	1.70000E-03
0.004428	0.970000	8.60000E-05
0.006199	0.970000	2.30000E-04
0.008266	0.970000	6.00000E-04
0.012400	0.970000	2.50000E-03
0.015500	0.970000	6.74100E-03
0.017710	0.960000	9.76400E-03
0.020660	0.940000	1.38000E-02
0.024800	0.920000	2.50000E-02
0.031000	0.890000	5.50000E-02
0.035420	0.860000	9.40200E-02
0.037570	0.844000	1.13000E-01
0.038750	0.839000	1.19000E-01
0.040000	0.835000	1.32000E-01
0.041330	0.825000	1.45000E-01
0.042750	0.818000	1.71000E-01
0.044280	0.809000	1.85000E-01
0.045920	0.809000	2.10000E-01
0.047690	0.804000	2.36000E-01
0.049590	0.803000	2.74000E-01
0.051660	0.788000	3.17000E-01
0.053910	0.796000	3.65000E-01
0.056360	0.795000	4.03000E-01
0.059040	0.808000	4.39000E-01
0.061990	0.818000	4.89000E-01
0.065260	0.836000	5.38000E-01
0.068880	0.868000	5.94000E-01
0.072930	0.916000	6.55000E-01
0.077490	0.981000	7.23000E-01
0.082660	1.050000	7.98000E-01
0.088560	1.240000	8.87000E-01
0.095370	1.400000	8.49000E-01
0.103300	1.550000	7.46000E-01
0.112700	1.610000	6.22000E-01
0.124000	1.640000	6.10000E-01
0.126500	1.661377	6.00000E-01
0.129200	1.684464	6.15000E-01
0.131900	1.707551	6.35000E-01
0.134800	1.732348	6.50000E-01
0.137800	1.758000	6.55000E-01
0.140100	1.810000	6.43900E-01
0.140900	1.851333	6.40000E-01
0.142500	1.934000	6.30300E-01
0.144200	1.965960	6.20000E-01
0.145000	1.981000	5.98800E-01
0.147600	2.065000	5.30000E-01
0.150300	2.076000	4.21300E-01
0.151200	2.073107	3.85000E-01
0.153100	2.067000	3.12500E-01
0.155000	2.033831	2.40000E-01
0.156000	2.016373	2.16300E-01
0.159000	1.964000	1.45000E-01
0.162100	1.924000	9.88800E-02
0.163100	1.909313	8.40000E-02
0.165300	1.877000	6.45000E-02
0.167500	1.833000	4.50000E-02
0.168700	1.809000	3.98900E-02
0.172200	1.732000	2.50000E-02
0.175900	1.715000	1.62400E-02
0.177100	1.708368	1.34000E-02
0.179700	1.694000	1.05500E-02
0.182300	1.672550	7.70000E-03
0.183700	1.661000	6.85000E-03
0.187900	1.643000	4.30000E-03
0.192200	1.634000	2.85400E-03
0.193700	1.629109	2.35000E-03
0.196800	1.619000	1.88300E-03
0.200000	1.611667	1.40000E-03
0.201600	1.608000	1.26900E-03
0.206600	1.597000	8.60000E-04
0.211900	1.578000	6.90700E-04
0.213800	1.572865	6.30000E-04
0.215600	1.568000	6.01600E-04
0.221400	1.561308	5.10000E-04
0.223400	1.559000	4.92900E-04
0.229600	1.549000	4.40000E-04
0.236100	1.543000	3.95700E-04
0.238400	1.539714	3.80000E-04
0.243100	1.533000	3.16400E-04
0.248000	1.526378	2.50000E-04
0.250500	1.523256	6.01355E-05
0.253000	1.521181	6.21913E-05
0.258300	1.517309	6.39291E-05
0.263800	1.514344	6.00377E-05
0.266600	1.513148	5.67011E-05
0.275500	1.510003	4.41383E-05
0.285000	1.507000	3.08562E-05
0.295200	1.504984	2.61929E-05
0.306100	1.502079	2.10902E-05
0.317900	1.500002	1.60865E-05
0.330600	1.498079	1.53129E-05
0.344400	1.497999	1.53138E-05
0.359400	1.497999	1.82377E-05
0.375700	1.497964	2.05012E-05
0.393600	1.496947	1.38144E-05
0.413300	1.495111	1.03671E-05
0.435000	1.495002	1.00334E-05
0.459200	1.493027	9.99310E-06
0.486200	1.491968	9.71871E-06
0.516600	1.490068	9.51626E-06
0.551100	1.489815	9.65889E-06
0.590400	1.482051	1.04315E-05
0.635800	1.480000	9.79730E-06
0.688800	1.477999	1.01489E-05
0.751400	1.475957	1.08404E-05
0.826600	1.471000	1.09994E-05
0.918400	1.466099	1.26185E-05
0.920000	1.466066	1.26188E-05
0.970000	1.468179	1.12384E-05
1.020000	1.470289	1.05421E-05
1.070000	1.472399	1.05270E-05
1.120000	1.474510	9.83378E-06
1.170000	1.476618	1.35447E-05
1.220000	1.478729	2.63729E-05
1.270000	1.480838	1.04670E-05
1.320000	1.482950	8.09198E-06
1.370000	1.485059	1.01011E-05
1.420000	1.487169	1.84915E-05
1.470000	1.489279	1.07424E-05
1.520000	1.491388	8.04620E-06
1.570000	1.493499	6.36073E-06
1.620000	1.495611	5.68330E-06
1.670000	1.497722	1.23565E-05
1.720000	1.499831	1.20698E-04
1.724000	1.499966	1.32666E-04
1.727000	1.500000	1.39135E-04
1.730000	1.500000	1.44334E-04
1.733000	1.500000	1.44534E-04
1.736000	1.500000	1.43396E-04
1.739000	1.500000	1.39597E-04
1.742000	1.500000	1.34593E-04
1.748000	1.500000	1.21200E-04
1.754000	1.500000	1.08524E-04
1.761000	1.500000	9.63972E-05
1.764000	1.500000	9.36047E-05
1.767000	1.500000	9.08043E-05
1.770000	1.500000	8.79999E-05
1.773000	1.500000	8.52020E-05
1.779000	1.500000	7.82697E-05
1.786000	1.500000	7.17293E-05
1.818000	1.500000	6.40000E-05
1.852000	1.500000	5.06645E-05
1.887000	1.500000	3.96667E-05
1.923000	1.500000	3.80000E-05
1.961000	1.500000	3.73332E-05
2.000000	1.500000	4.20000E-05
2.041000	1.500000	4.10000E-05
2.083000	1.500000	3.69999E-05
2.128000	1.500000	3.08663E-05
2.174000	1.500000	3.40000E-05
2.222000	1.500000	4.94669E-05
2.232000	1.500000	5.98670E-05
2.242000	1.500000	7.34002E-05
2.252000	1.500000	9.51971E-05
2.262000	1.500000	1.31998E-04
2.273000	1.500000	2.02133E-04
2.283000	1.500000	3.14863E-04
2.294000	1.500000	5.26253E-04
2.299000	1.500000	6.38000E-04
2.304000	1.500001	7.36316E-04
2.309000	1.500000	8.00408E-04
2.315000	1.500001	8.25996E-04
2.320000	1.500000	8.02994E-04
2.326000	1.500001	7.51796E-04
2.336000	1.500000	6.96067E-04
2.342000	1.500001	7.03798E-04
2.347000	1.500001	7.33269E-04
2.353000	1.500001	7.75267E-04
2.358000	1.500001	7.97197E-04
2.370000	1.500001	8.01334E-04
2.381000	1.500001	8.18197E-04
2.392000	1.500001	8.55333E-04
2.398000	1.500001	8.65333E-04
2.404000	1.500001	8.67333E-04
2.410000	1.500001	8.59667E-04
2.415000	1.500001	8.45332E-04
2.421000	1.500001	8.25468E-04
2.427000	1.500001	8.12265E-04
2.433000	1.500001	7.97065E-04
2.439000	1.500001	7.72669E-04
2.445000	1.500001	7.29322E-04
2.451000	1.500000	6.72539E-04
2.463000	1.500000	5.63531E-04
2.475000	1.500000	4.96338E-04
2.488000	1.500000	4.30729E-04
2.500000	1.500000	7.10000E-04
2.506000	1.500000	7.30000E-04
2.513000	1.500000	7.40000E-04
2.519000	1.500000	7.00000E-04
2.525000	1.500000	7.20000E-04
2.538000	1.500000	7.20000E-04
2.551000	1.500000	7.90000E-04
2.564000	1.500000	8.10000E-04
2.577000	1.500000	8.00000E-04
2.591000	1.500000	7.70000E-04
2.604000	1.500000	7.40000E-04
2.618000	1.500000	7.80000E-04
2.632000	1.500000	7.70000E-04
2.646000	1.500000	7.30000E-04
2.660000	1.500000	7.00000E-04
2.674000	1.500000	6.80000E-04
2.688000	1.500000	6.90000E-04
2.703000	1.500000	7.00000E-04
2.717000	1.500000	9.80000E-04
2.732000	1.500000	8.00000E-04
2.740000	1.500000	8.60000E-04
2.470000	1.500000	8.10000E-04
2.755000	1.500000	8.00000E-04
2.762000	1.500000	7.60000E-04
2.770000	1.500000	1.00000E-03
2.778000	1.500000	8.60000E-04
2.793000	1.500000	6.40000E-04
2.809000	1.500000	5.80000E-04
2.825000	1.500000	5.50000E-04
2.841000	1.500000	5.50000E-04
2.857000	1.500000	5.50000E-04
2.874000	1.500000	5.90000E-04
2.890000	1.500000	6.20000E-04
2.907000	1.500000	6.60000E-04
2.924000	1.500000	6.40000E-04
2.941000	1.500000	6.40000E-04
2.950000	1.500000	6.80000E-04
2.959000	1.500000	7.20000E-04
2.967000	1.500000	7.30000E-04
2.976000	1.500000	7.10000E-04
2.994000	1.500000	6.80000E-04
3.012000	1.500000	6.80000E-04
3.030000	1.500000	6.80000E-04
3.049000	1.500000	6.80000E-04
3.067000	1.500000	7.10000E-04
3.086000	1.500000	7.30000E-04
3.106000	1.500000	7.60000E-04
3.125000	1.500000	7.70000E-04
3.145000	1.500000	7.90000E-04
3.165000	1.500000	8.60000E-04
3.185000	1.500000	9.50000E-04
3.205000	1.500000	1.80000E-03
3.226000	1.500000	1.50000E-03
3.247000	1.500000	2.30000E-03
3.268000	1.500000	2.70000E-03
3.289000	1.500000	3.10000E-03
3.311000	1.500000	3.80000E-03
3.333000	1.500000	4.50000E-03
3.356000	1.500000	6.10000E-03
3.378000	1.500000	9.50000E-03
3.401000	1.500000	2.80000E-02
3.413000	1.500000	7.30000E-02
3.425000	1.500000	1.90000E-01
3.436000	1.500000	8.80000E-02
3.448000	1.500000	5.20000E-02
3.460000	1.500000	4.60000E-02
3.472000	1.500000	2.50000E-02
3.484000	1.500000	2.20000E-02
3.497000	1.500000	3.30000E-02
3.509000	1.500000	1.50000E-01
3.521000	1.500000	3.60000E-02
3.534000	1.500000	1.50000E-02
3.546000	1.500000	1.10000E-02
3.571000	1.500000	7.80000E-03
3.597000	1.500000	3.60000E-03
3.623000	1.500000	2.90000E-03
3.650000	1.500000	2.60000E-03
3.676000	1.500000	2.40000E-03
3.703000	1.500000	2.10000E-03
3.731000	1.500000	1.80000E-03
3.745000	1.500000	2.30000E-03
3.759000	1.500000	3.80000E-03
3.774000	1.500000	2.40000E-03
3.788000	1.500000	2.80000E-03
3.802000	1.500000	2.50000E-03
3.817000	1.500000	2.50000E-03
3.846000	1.500000	1.80000E-03
3.876000	1.500000	1.50000E-03
3.906000	1.500000	1.40000E-03
3.922000	1.500000	1.00000E-03
3.937000	1.500000	1.10000E-03
3.953000	1.500000	8.50000E-04
3.968000	1.500000	1.10000E-03
4.000000	1.500000	6.30000E-04
4.016000	1.500000	6.10000E-04
4.032000	1.500000	6.40000E-04
4.049000	1.500000	5.80000E-04
4.065000	1.500000	5.10000E-04
4.098000	1.500000	5.00000E-04
4.132000	1.500000	6.30000E-04
4.149000	1.500000	6.30000E-04
4.167000	1.500000	5.70000E-04
4.202000	1.500000	5.20000E-04
4.237000	1.500000	6.70000E-04
4.255000	1.500000	1.10000E-03
4.274000	1.500000	1.10000E-03
4.292000	1.500000	1.10000E-03
4.310000	1.500000	9.60000E-04
4.348000	1.500000	6.80000E-04
4.367000	1.500000	6.60000E-04
4.386000	1.500000	7.00000E-04
4.405000	1.500000	6.30000E-04
4.425000	1.500000	5.10000E-04
4.444000	1.500000	5.00000E-04
4.464000	1.500000	6.20000E-04
4.484000	1.500000	4.50000E-04
4.505000	1.500000	5.20000E-04
4.525000	1.500000	4.60000E-04
4.545000	1.500000	4.60000E-04
4.566000	1.500000	4.90000E-04
4.587000	1.500000	4.90000E-04
4.608000	1.500000	4.90000E-04
4.630000	1.500000	5.40000E-04
4.651000	1.500000	5.70000E-04
4.673000	1.500000	5.30000E-04
4.695000	1.500000	4.50000E-04
4.717000	1.500000	4.20000E-04
4.762000	1.500000	4.30000E-04
4.808000	1.500000	4.40000E-04
4.854000	1.500000	5.00000E-04
4.902000	1.500000	6.90000E-04
4.926000	1.500000	8.30000E-04
4.950000	1.500000	1.00000E-03
4.975000	1.500000	6.20000E-04
5.000000	1.500000	5.00000E-04
5.051000	1.500000	4.50000E-04
5.102000	1.500000	5.30000E-04
5.128000	1.500000	5.30000E-04
5.155000	1.500000	5.10000E-04
5.208000	1.500000	5.50000E-04
5.236000	1.500000	6.40000E-04
5.263000	1.500000	8.10000E-04
5.291000	1.500000	7.30000E-04
5.319000	1.500000	4.50000E-04
5.376000	1.500000	3.60000E-04
5.435000	1.500000	3.90000E-04
5.464000	1.500000	4.70000E-04
5.495000	1.500000	5.90000E-04
5.525000	1.500000	4.90000E-04
5.556000	1.500000	4.60000E-04
5.587000	1.500000	4.40000E-04
5.618000	1.500000	4.30000E-04
5.650000	1.500000	4.30000E-04
5.682000	1.500000	4.60000E-04
5.714000	1.500000	5.40000E-04
5.747000	1.500000	6.90000E-04
5.780000	1.500000	7.00000E-04
5.814000	1.500000	6.20000E-04
5.848000	1.500000	5.50000E-04
5.882000	1.500000	5.20000E-04
5.917000	1.500000	5.20000E-04
5.952000	1.500000	5.20000E-04
5.988000	1.500000	5.20000E-04
6.024000	1.500000	5.40000E-04
6.061000	1.500000	6.70000E-04
6.098000	1.500000	1.20000E-03
6.135000	1.500000	8.80000E-04
6.173000	1.500000	8.30000E-04
6.211000	1.500000	8.70000E-04
6.250000	1.500000	9.20000E-04
6.289000	1.500000	9.90000E-04
6.329000	1.500000	9.70000E-04
6.369000	1.500000	9.00000E-04
6.410000	1.500000	9.00000E-04
6.452000	1.500000	9.70000E-04
6.494000	1.500000	1.00000E-03
6.536000	1.500000	1.20000E-03
6.579000	1.500000	1.30000E-03
6.623000	1.500000	1.60000E-03
6.667000	1.500000	2.90000E-03
6.711000	1.500000	5.40000E-03
6.734000	1.500000	1.70000E-02
6.757000	1.500000	4.50000E-02
6.780000	1.500000	3.50000E-02
6.803000	1.500000	3.00000E-02
6.826000	1.500000	5.50000E-02
6.849000	1.500000	2.80000E-02
6.897000	1.500000	8.50000E-03
6.944000	1.500000	5.90000E-03
6.993000	1.500000	4.10000E-03
7.042000	1.500000	3.00000E-03
7.092000	1.500000	2.40000E-03
7.143000	1.500000	2.10000E-03
7.194000	1.500000	1.20000E-03
7.246000	1.500000	1.60000E-03
7.273000	1.500000	2.20000E-03
7.299000	1.500000	2.90000E-03
7.326000	1.500000	2.80000E-03
7.353000	1.500000	2.50000E-03
7.380000	1.500000	2.40000E-03
7.407000	1.500000	2.40000E-03
7.436000	1.500000	2.10000E-03
7.519000	1.500000	1.50000E-03
7.576000	1.500000	1.50000E-03
7.634000	1.500000	1.90000E-03
7.692000	1.500000	2.00000E-03
7.752000	1.500000	1.80000E-03
7.813000	1.500000	1.60000E-03
7.874000	1.500000	1.30000E-03
7.937000	1.500000	1.20000E-03
8.000000	1.500000	1.10000E-03
8.065000	1.500000	1.00000E-03
8.130000	1.500000	1.00000E-03
8.197000	1.500000	9.60000E-04
8.264000	1.500000	9.20000E-04
8.333000	1.500000	8.90000E-04
8.403000	1.500000	9.30000E-04
8.439000	1.500000	9.10000E-04
8.475000	1.500000	9.40000E-04
8.511000	1.500000	1.20000E-03
8.547000	1.500000	9.90000E-04
8.584000	1.500000	9.70000E-04
8.621000	1.500000	9.90000E-04
8.696000	1.500000	9.50000E-04
8.772000	1.500000	9.60000E-04
8.850000	1.500000	9.90000E-04
8.929000	1.500000	1.10000E-03
9.009000	1.500000	1.10000E-03
9.091000	1.500000	9.40000E-04
9.170000	1.500000	1.10000E-03
9.259000	1.500000	1.30000E-03
9.302000	1.500000	1.30000E-03
9.346000	1.500000	1.20000E-03
9.390000	1.500000	1.20000E-03
9.434000	1.500000	1.10000E-03
9.479000	1.500000	1.10000E-03
9.524000	1.500000	1.10000E-03
9.569000	1.500000	9.30000E-04
9.615000	1.500000	9.20000E-04
9.709000	1.500000	8.20000E-04
9.804000	1.500000	8.10000E-04
9.901000	1.500000	8.30000E-04
10.000000	1.500000	1.00000E-03
10.050000	1.500000	1.30000E-03
10.100000	1.500000	1.50000E-03
10.150000	1.500000	1.30000E-03
10.200000	1.500000	1.10000E-03
10.260000	1.500000	8.00000E-04
10.310000	1.500000	8.40000E-04
10.360000	1.500000	9.10000E-04
10.420000	1.500000	8.50000E-04
10.470000	1.500000	8.30000E-04
10.530000	1.500000	8.20000E-04
10.640000	1.500000	8.30000E-04
10.750000	1.500000	8.70000E-04
10.870000	1.500000	1.30000E-03
10.930000	1.500000	1.60000E-03
10.960000	1.500000	2.30000E-03
10.990000	1.500000	3.50000E-03
11.020000	1.500000	3.60000E-03
11.050000	1.500000	2.70000E-03
11.110000	1.500000	1.70000E-03
11.240000	1.500000	9.00000E-04
11.360000	1.500000	8.10000E-04
11.490000	1.500000	6.70000E-04
11.630000	1.500000	7.20000E-04
11.760000	1.500000	7.60000E-04
11.900000	1.500000	7.80000E-04
12.050000	1.500000	8.20000E-04
12.200000	1.500000	8.70000E-04
12.350000	1.500000	9.50000E-04
12.500000	1.500000	1.00000E-03
12.660000	1.500000	1.10000E-03
12.820000	1.500000	1.10000E-03
12.990000	1.500000	1.30000E-03
13.160000	1.500000	1.60000E-03
13.330000	1.500000	2.30000E-03
13.510000	1.500000	6.40000E-03
13.610000	1.500000	1.90000E-02
13.700000	1.500000	8.10000E-02
13.790000	1.500000	2.90000E-02
13.890000	1.500000	7.00000E-02
13.990000	1.500000	1.90000E-02
14.080000	1.500000	1.20000E-02
14.290000	1.500000	3.50000E-03
14.490000	1.500000	1.90000E-03
14.710000	1.500000	1.50000E-03
14.930000	1.500000	1.20000E-03
22.260000	1.513900	7.70000E-04
22.360000	1.513880	7.90000E-04
22.460000	1.513840	7.30000E-04
22.560000	1.513810	7.50000E-04
22.650000	1.513800	9.00000E-04
22.760000	1.513800	7.50000E-04
22.860000	1.513780	6.80000E-04
22.960000	1.513760	7.00000E-04
23.060000	1.513750	7.10000E-04
23.170000	1.513750	7.10000E-04
23.270000	1.513740	7.00000E-04
23.380000	1.513730	6.90000E-04
23.490000	1.513710	7.00000E-04
23.590000	1.513720	7.10000E-04
23.700000	1.513710	7.00000E-04
23.810000	1.513700	6.70000E-04
23.930000	1.513690	6.70000E-04
24.040000	1.513680	6.90000E-04
24.150000	1.513670	7.00000E-04
24.270000	1.513650	6.90000E-04
24.380000	1.513640	6.70000E-04
24.500000	1.513620	6.70000E-04
24.620000	1.513610	6.80000E-04
24.730000	1.513600	6.80000E-04
24.850000	1.513580	6.70000E-04
24.980000	1.513570	6.50000E-04
25.100000	1.513550	6.50000E-04
25.220000	1.513550	6.60000E-04
25.350000	1.513540	6.60000E-04
25.470000	1.513540	6.70000E-04
25.600000	1.513520	6.80000E-04
25.730000	1.513500	6.80000E-04
25.860000	1.513490	6.90000E-04
25.990000	1.513480	7.10000E-04
26.120000	1.513460	7.10000E-04
26.260000	1.513440	6.90000E-04
26.390000	1.513430	7.00000E-04
26.530000	1.513420	7.10000E-04
26.670000	1.513410	7.10000E-04
26.810000	1.513420	7.00000E-04
26.950000	1.513420	7.10000E-04
27.090000	1.513410	7.10000E-04
27.230000	1.513410	7.00000E-04
27.380000	1.513400	6.90000E-04
27.530000	1.513390	6.90000E-04
27.680000	1.513380	6.90000E-04
27.830000	1.513370	6.80000E-04
27.980000	1.513360	6.70000E-04
28.130000	1.513340	6.70000E-04
28.290000	1.513330	6.70000E-04
28.440000	1.513320	6.70000E-04
28.600000	1.513320	6.60000E-04
28.760000	1.513310	6.60000E-04
28.930000	1.513300	6.60000E-04
29.090000	1.513290	6.60000E-04
29.260000	1.513280	6.60000E-04
29.430000	1.513280	6.60000E-04
29.600000	1.513270	6.60000E-04
29.770000	1.513270	6.60000E-04
29.940000	1.513260	6.60000E-04
30.120000	1.513250	6.60000E-04
30.300000	1.513240	6.50000E-04
30.480000	1.513230	6.60000E-04
30.660000	1.513220	6.60000E-04
30.840000	1.513220	6.60000E-04
31.030000	1.513210	6.60000E-04
31.220000	1.513210	6.60000E-04
31.410000	1.513200	6.60000E-04
31.600000	1.513200	6.70000E-04
31.800000	1.513190	6.70000E-04
32.000000	1.513190	6.60000E-04
32.200000	1.513190	6.60000E-04
32.410000	1.513180	6.70000E-04
32.610000	1.513180	6.80000E-04
32.820000	1.513170	6.80000E-04
33.030000	1.513160	6.80000E-04
33.250000	1.513150	6.80000E-04
33.460000	1.513150	6.90000E-04
33.680000	1.513150	7.00000E-04
33.910000	1.513160	7.00000E-04
34.130000	1.513160	7.00000E-04
34.360000	1.513150	7.10000E-04
34.590000	1.513150	7.20000E-04
34.830000	1.513150	7.20000E-04
35.070000	1.513140	7.20000E-04
35.310000	1.513140	7.30000E-04
35.560000	1.513140	7.30000E-04
35.800000	1.513140	7.40000E-04
36.060000	1.513130	7.60000E-04
36.310000	1.513140	7.70000E-04
36.570000	1.513140	7.70000E-04
36.830000	1.513140	7.80000E-04
37.100000	1.513140	7.80000E-04
37.370000	1.513140	7.90000E-04
37.650000	1.513140	7.90000E-04
37.930000	1.513130	8.00000E-04
38.210000	1.513130	8.00000E-04
38.500000	1.513130	8.10000E-04
38.790000	1.513130	8.20000E-04
39.080000	1.513130	8.30000E-04
39.380000	1.513120	8.50000E-04
39.690000	1.513110	8.60000E-04
40.000000	1.513110	8.70000E-04
40.310000	1.513100	8.80000E-04
40.630000	1.513100	8.80000E-04
40.960000	1.513100	8.90000E-04
41.290000	1.513100	9.10000E-04
41.630000	1.513100	9.20000E-04
41.970000	1.513100	9.40000E-04
42.310000	1.513100	9.50000E-04
42.670000	1.513100	9.60000E-04
43.030000	1.513100	9.60000E-04
43.390000	1.513100	9.70000E-04
43.760000	1.513100	9.80000E-04
44.140000	1.513090	9.90000E-04
44.520000	1.513080	9.90000E-04
44.910000	1.513090	1.01000E-03
45.310000	1.513090	1.02000E-03
45.710000	1.513090	1.04000E-03
46.130000	1.513090	1.07000E-03
46.550000	1.513100	1.07000E-03
46.970000	1.513100	1.06000E-03
47.410000	1.513100	1.06000E-03
47.850000	1.513100	1.06000E-03
48.300000	1.513110	1.08000E-03
48.760000	1.513110	1.11000E-03
49.230000	1.513100	1.12000E-03
49.710000	1.513090	1.14000E-03
50.200000	1.513100	1.15000E-03
50.690000	1.513110	1.15000E-03
51.200000	1.513110	1.17000E-03
51.720000	1.513120	1.19000E-03
52.240000	1.513130	1.18000E-03
52.780000	1.513130	1.16000E-03
53.330000	1.513130	1.18000E-03
53.890000	1.513140	1.20000E-03
54.470000	1.513150	1.20000E-03
55.050000	1.513160	1.19000E-03
55.650000	1.513160	1.19000E-03
56.260000	1.513160	1.20000E-03
56.890000	1.513170	1.22000E-03
57.530000	1.513180	1.24000E-03
58.180000	1.513190	1.22000E-03
58.850000	1.513180	1.22000E-03
59.530000	1.513180	1.24000E-03
60.240000	1.513190	1.25000E-03
60.950000	1.513200	1.26000E-03
61.690000	1.513210	1.26000E-03
62.440000	1.513210	1.25000E-03
63.210000	1.513210	1.25000E-03
64.000000	1.513210	1.25000E-03
64.810000	1.513220	1.26000E-03
65.640000	1.513220	1.27000E-03
66.490000	1.513200	1.28000E-03
67.370000	1.513200	1.27000E-03
68.270000	1.513200	1.29000E-03
69.190000	1.513200	1.31000E-03
70.140000	1.513200	1.31000E-03
71.110000	1.513200	1.30000E-03
72.110000	1.513200	1.30000E-03
73.140000	1.513200	1.31000E-03
74.200000	1.513200	1.32000E-03
75.290000	1.513200	1.32000E-03
76.420000	1.513200	1.34000E-03
77.580000	1.513200	1.34000E-03
78.770000	1.513200	1.33000E-03
80.000000	1.513200	1.32000E-03
81.270000	1.513300	1.30000E-03
82.580000	1.513300	1.28000E-03
83.930000	1.513300	1.27000E-03
85.330000	1.513300	1.27000E-03
86.780000	1.513300	1.26000E-03
88.280000	1.513300	1.28000E-03
89.820000	1.513300	1.27000E-03
91.430000	1.513300	1.25000E-03
93.090000	1.513300	1.24000E-03
94.810000	1.513300	1.23000E-03
96.600000	1.513300	1.23000E-03
98.460000	1.513300	1.26000E-03
100.400000	1.513300	1.29000E-03
102.400000	1.513200	1.28000E-03
104.500000	1.513300	1.27000E-03
106.700000	1.513300	1.28000E-03
108.900000	1.513300	1.28000E-03
111.300000	1.513300	1.25000E-03
113.800000	1.513300	1.23000E-03
116.400000	1.513300	1.23000E-03
119.100000	1.513200	1.23000E-03
121.900000	1.513200	1.24000E-03
124.900000	1.513200	1.30000E-03
128.000000	1.513200	1.42000E-03
131.300000	1.513100	1.59000E-03
134.700000	1.513200	2.01000E-03
138.400000	1.513300	2.32000E-03
142.200000	1.513600	1.88000E-03
146.300000	1.513800	1.50000E-03
150.600000	1.513900	1.29000E-03
155.100000	1.513900	1.15000E-03
160.000000	1.513800	1.09000E-03
165.200000	1.513800	1.09000E-03
200.000000	1.513800	6.20000E-04
222.200000	1.513800	5.60000E-04
250.000000	1.513800	5.10000E-04
285.700000	1.513800	4.50000E-04
333.300000	1.513800	4.00000E-04
400.000000	1.513800	3.40000E-04
500.000000	1.513800	2.90000E-04
666.700000	1.513800	2.30000E-04
1000.000000	1.513800	1.70000E-04
2000.000000	1.513800	1.20000E-04