# this file is a custom refractive index
# REFERENCE 1: Palik Handbook of Optical Constants
#
# First column: 	Wavelength (in um)
# Second column:	refractive index
# Third column:		extinction coefficient
#
0.001240	0.97000	1.800E-05
0.001378	0.97000	2.300E-05
0.001550	0.97000	4.000E-05
0.001771	0.97000	7.000E-05
0.002066	0.97000	1.100E-04
0.002480	0.97000	2.100E-04
0.003100	0.97000	5.000E-04
0.004133	0.97000	1.400E-03
0.004379	0.97000	1.700E-03
0.004428	0.97000	8.600E-05
0.006199	0.97000	2.300E-04
0.008266	0.97000	6.000E-04
0.012400	0.97000	2.500E-03
0.015500	0.97000	6.741E-03
0.017710	0.96000	9.764E-03
0.020660	0.94000	1.380E-02
0.024800	0.92000	2.500E-02
0.031000	0.89000	5.500E-02
0.035420	0.86000	9.402E-02
0.037570	0.84400	1.130E-01
0.038750	0.83900	1.190E-01
0.040000	0.83500	1.320E-01
0.041330	0.82500	1.450E-01
0.042750	0.81800	1.710E-01
0.044280	0.80900	1.850E-01
0.045920	0.80900	2.100E-01
0.047690	0.80400	2.360E-01
0.049590	0.80300	2.740E-01
0.051660	0.78800	3.170E-01
0.053910	0.79600	3.650E-01
0.056360	0.79500	4.030E-01
0.059040	0.80800	4.390E-01
0.061990	0.81800	4.890E-01
0.065260	0.83600	5.380E-01
0.068880	0.86800	5.940E-01
0.072930	0.91600	6.550E-01
0.077490	0.98100	7.230E-01
0.082660	1.05000	7.980E-01
0.088560	1.24000	8.870E-01
0.095370	1.40000	8.490E-01
0.103300	1.55000	7.460E-01
0.112700	1.61000	6.220E-01
0.124000	1.64000	6.100E-01
0.126500	1.66138	6.000E-01
0.129200	1.68446	6.150E-01
0.131900	1.70755	6.350E-01
0.134800	1.73235	6.500E-01
0.137800	1.75800	6.550E-01
0.140100	1.81000	6.439E-01
0.140900	1.85133	6.400E-01
0.142500	1.93400	6.303E-01
0.144200	1.96596	6.200E-01
0.145000	1.98100	5.988E-01
0.147600	2.06500	5.300E-01
0.150300	2.07600	4.213E-01
0.151200	2.07311	3.850E-01
0.153100	2.06700	3.125E-01
0.155000	2.03383	2.400E-01
0.156000	2.01637	2.163E-01
0.159000	1.96400	1.450E-01
0.162100	1.92400	9.888E-02
0.163100	1.90931	8.400E-02
0.165300	1.87700	6.450E-02
0.167500	1.83300	4.500E-02
0.168700	1.80900	3.989E-02
0.172200	1.73200	2.500E-02
0.175900	1.71500	1.624E-02
0.177100	1.70837	1.340E-02
0.179700	1.69400	1.055E-02
0.182300	1.67255	7.700E-03
0.183700	1.66100	6.850E-03
0.187900	1.64300	4.300E-03
0.192200	1.63400	2.854E-03
0.193700	1.62911	2.350E-03
0.196800	1.61900	1.883E-03
0.200000	1.61167	1.400E-03
0.201600	1.60800	1.269E-03
0.206600	1.59700	8.600E-04
0.211900	1.57800	6.907E-04
0.213800	1.57287	6.300E-04
0.215600	1.56800	6.016E-04
0.221400	1.56131	5.100E-04
0.223400	1.55900	4.929E-04
0.229600	1.54900	4.400E-04
0.236100	1.54300	3.957E-04
0.238400	1.53971	3.800E-04
0.243100	1.53300	3.164E-04
0.248000	1.52638	2.500E-04
0.250500	1.52300	1.750E-04
0.253000	1.52108	1.000E-04
0.258300	1.51700	5.583E-05
0.263800	1.51435	1.000E-05
0.266600	1.51300	0.000E+00
0.275500	1.51000	0.000E+00
0.285000	1.50700	0.000E+00
0.295200	1.50500	0.000E+00
0.306100	1.50200	0.000E+00
0.317900	1.50000	0.000E+00
0.330600	1.49800	0.000E+00
0.344400	1.49800	0.000E+00
0.359400	1.49800	0.000E+00
0.375700	1.49800	0.000E+00
0.393600	1.49700	0.000E+00
0.413300	1.49500	0.000E+00
0.435000	1.49500	0.000E+00
0.459200	1.49300	0.000E+00
0.486200	1.49200	0.000E+00
0.516600	1.49000	0.000E+00
0.551100	1.49000	0.000E+00
0.590400	1.48200	0.000E+00
0.635800	1.48000	0.000E+00
0.688800	1.47800	0.000E+00
0.751400	1.47600	0.000E+00
0.826600	1.47100	0.000E+00
0.918400	1.46600	0.000E+00
0.920000	1.46607	9.930E-07
0.970000	1.46818	3.203E-05
1.020000	1.47029	6.306E-05
1.070000	1.47240	9.409E-05
1.120000	1.47451	1.251E-04
1.170000	1.47662	1.562E-04
1.220000	1.47873	1.872E-04
1.270000	1.48084	2.182E-04
1.320000	1.48295	2.493E-04
1.370000	1.48506	2.803E-04
1.420000	1.48717	3.113E-04
1.470000	1.48928	3.424E-04
1.520000	1.49139	3.734E-04
1.570000	1.49350	4.044E-04
1.620000	1.49561	4.355E-04
1.670000	1.49772	4.665E-04
1.720000	1.49983	4.975E-04
1.724000	1.50000	5.000E-04
1.727000	1.50000	5.300E-04
1.730000	1.50000	5.700E-04
1.733000	1.50000	6.200E-04
1.736000	1.50000	5.700E-04
1.739000	1.50000	4.800E-04
1.742000	1.50000	4.500E-04
1.748000	1.50000	4.100E-04
1.754000	1.50000	4.100E-04
1.761000	1.50000	4.300E-04
1.764000	1.50000	4.700E-04
1.767000	1.50000	4.800E-04
1.770000	1.50000	4.600E-04
1.773000	1.50000	4.400E-04
1.779000	1.50000	4.100E-04
1.786000	1.50000	4.100E-04
1.818000	1.50000	4.000E-04
1.852000	1.50000	3.800E-04
1.887000	1.50000	3.700E-04
1.923000	1.50000	3.700E-04
1.961000	1.50000	3.800E-04
2.000000	1.50000	3.800E-04
2.041000	1.50000	3.800E-04
2.083000	1.50000	3.800E-04
2.128000	1.50000	3.800E-04
2.174000	1.50000	3.900E-04
2.222000	1.50000	4.000E-04
2.232000	1.50000	4.200E-04
2.242000	1.50000	4.400E-04
2.252000	1.50000	4.600E-04
2.262000	1.50000	5.000E-04
2.273000	1.50000	5.700E-04
2.283000	1.50000	7.100E-04
2.294000	1.50000	9.400E-04
2.299000	1.50000	1.200E-03
2.304000	1.50000	1.900E-03
2.309000	1.50000	2.500E-03
2.315000	1.50000	1.700E-03
2.320000	1.50000	1.000E-03
2.326000	1.50000	1.200E-03
2.336000	1.50000	1.200E-03
2.342000	1.50000	1.300E-03
2.347000	1.50000	1.500E-03
2.353000	1.50000	1.800E-03
2.358000	1.50000	1.200E-03
2.370000	1.50000	1.200E-03
2.381000	1.50000	1.400E-03
2.392000	1.50000	1.400E-03
2.398000	1.50000	1.400E-03
2.404000	1.50000	1.400E-03
2.410000	1.50000	1.400E-03
2.415000	1.50000	1.400E-03
2.421000	1.50000	1.300E-03
2.427000	1.50000	1.400E-03
2.433000	1.50000	1.400E-03
2.439000	1.50000	1.400E-03
2.445000	1.50000	1.100E-03
2.451000	1.50000	1.000E-03
2.463000	1.50000	9.400E-04
2.475000	1.50000	8.600E-04
2.488000	1.50000	8.400E-04
2.500000	1.50000	7.100E-04
2.506000	1.50000	7.300E-04
2.513000	1.50000	7.400E-04
2.519000	1.50000	7.000E-04
2.525000	1.50000	7.200E-04
2.538000	1.50000	7.200E-04
2.551000	1.50000	7.900E-04
2.564000	1.50000	8.100E-04
2.577000	1.50000	8.000E-04
2.591000	1.50000	7.700E-04
2.604000	1.50000	7.400E-04
2.618000	1.50000	7.800E-04
2.632000	1.50000	7.700E-04
2.646000	1.50000	7.300E-04
2.660000	1.50000	7.000E-04
2.674000	1.50000	6.800E-04
2.688000	1.50000	6.900E-04
2.703000	1.50000	7.000E-04
2.717000	1.50000	9.800E-04
2.732000	1.50000	8.000E-04
2.740000	1.50000	8.600E-04
2.470000	1.50000	8.100E-04
2.755000	1.50000	8.000E-04
2.762000	1.50000	7.600E-04
2.770000	1.50000	1.000E-03
2.778000	1.50000	8.600E-04
2.793000	1.50000	6.400E-04
2.809000	1.50000	5.800E-04
2.825000	1.50000	5.500E-04
2.841000	1.50000	5.500E-04
2.857000	1.50000	5.500E-04
2.874000	1.50000	5.900E-04
2.890000	1.50000	6.200E-04
2.907000	1.50000	6.600E-04
2.924000	1.50000	6.400E-04
2.941000	1.50000	6.400E-04
2.950000	1.50000	6.800E-04
2.959000	1.50000	7.200E-04
2.967000	1.50000	7.300E-04
2.976000	1.50000	7.100E-04
2.994000	1.50000	6.800E-04
3.012000	1.50000	6.800E-04
3.030000	1.50000	6.800E-04
3.049000	1.50000	6.800E-04
3.067000	1.50000	7.100E-04
3.086000	1.50000	7.300E-04
3.106000	1.50000	7.600E-04
3.125000	1.50000	7.700E-04
3.145000	1.50000	7.900E-04
3.165000	1.50000	8.600E-04
3.185000	1.50000	9.500E-04
3.205000	1.50000	1.800E-03
3.226000	1.50000	1.500E-03
3.247000	1.50000	2.300E-03
3.268000	1.50000	2.700E-03
3.289000	1.50000	3.100E-03
3.311000	1.50000	3.800E-03
3.333000	1.50000	4.500E-03
3.356000	1.50000	6.100E-03
3.378000	1.50000	9.500E-03
3.401000	1.50000	2.800E-02
3.413000	1.50000	7.300E-02
3.425000	1.50000	1.900E-01
3.436000	1.50000	8.800E-02
3.448000	1.50000	5.200E-02
3.460000	1.50000	4.600E-02
3.472000	1.50000	2.500E-02
3.484000	1.50000	2.200E-02
3.497000	1.50000	3.300E-02
3.509000	1.50000	1.500E-01
3.521000	1.50000	3.600E-02
3.534000	1.50000	1.500E-02
3.546000	1.50000	1.100E-02
3.571000	1.50000	7.800E-03
3.597000	1.50000	3.600E-03
3.623000	1.50000	2.900E-03
3.650000	1.50000	2.600E-03
3.676000	1.50000	2.400E-03
3.703000	1.50000	2.100E-03
3.731000	1.50000	1.800E-03
3.745000	1.50000	2.300E-03
3.759000	1.50000	3.800E-03
3.774000	1.50000	2.400E-03
3.788000	1.50000	2.800E-03
3.802000	1.50000	2.500E-03
3.817000	1.50000	2.500E-03
3.846000	1.50000	1.800E-03
3.876000	1.50000	1.500E-03
3.906000	1.50000	1.400E-03
3.922000	1.50000	1.000E-03
3.937000	1.50000	1.100E-03
3.953000	1.50000	8.500E-04
3.968000	1.50000	1.100E-03
4.000000	1.50000	6.300E-04
4.016000	1.50000	6.100E-04
4.032000	1.50000	6.400E-04
4.049000	1.50000	5.800E-04
4.065000	1.50000	5.100E-04
4.098000	1.50000	5.000E-04
4.132000	1.50000	6.300E-04
4.149000	1.50000	6.300E-04
4.167000	1.50000	5.700E-04
4.202000	1.50000	5.200E-04
4.237000	1.50000	6.700E-04
4.255000	1.50000	1.100E-03
4.274000	1.50000	1.100E-03
4.292000	1.50000	1.100E-03
4.310000	1.50000	9.600E-04
4.348000	1.50000	6.800E-04
4.367000	1.50000	6.600E-04
4.386000	1.50000	7.000E-04
4.405000	1.50000	6.300E-04
4.425000	1.50000	5.100E-04
4.444000	1.50000	5.000E-04
4.464000	1.50000	6.200E-04
4.484000	1.50000	4.500E-04
4.505000	1.50000	5.200E-04
4.525000	1.50000	4.600E-04
4.545000	1.50000	4.600E-04
4.566000	1.50000	4.900E-04
4.587000	1.50000	4.900E-04
4.608000	1.50000	4.900E-04
4.630000	1.50000	5.400E-04
4.651000	1.50000	5.700E-04
4.673000	1.50000	5.300E-04
4.695000	1.50000	4.500E-04
4.717000	1.50000	4.200E-04
4.762000	1.50000	4.300E-04
4.808000	1.50000	4.400E-04
4.854000	1.50000	5.000E-04
4.902000	1.50000	6.900E-04
4.926000	1.50000	8.300E-04
4.950000	1.50000	1.000E-03
4.975000	1.50000	6.200E-04
5.000000	1.50000	5.000E-04
5.051000	1.50000	4.500E-04
5.102000	1.50000	5.300E-04
5.128000	1.50000	5.300E-04
5.155000	1.50000	5.100E-04
5.208000	1.50000	5.500E-04
5.236000	1.50000	6.400E-04
5.263000	1.50000	8.100E-04
5.291000	1.50000	7.300E-04
5.319000	1.50000	4.500E-04
5.376000	1.50000	3.600E-04
5.435000	1.50000	3.900E-04
5.464000	1.50000	4.700E-04
5.495000	1.50000	5.900E-04
5.525000	1.50000	4.900E-04
5.556000	1.50000	4.600E-04
5.587000	1.50000	4.400E-04
5.618000	1.50000	4.300E-04
5.650000	1.50000	4.300E-04
5.682000	1.50000	4.600E-04
5.714000	1.50000	5.400E-04
5.747000	1.50000	6.900E-04
5.780000	1.50000	7.000E-04
5.814000	1.50000	6.200E-04
5.848000	1.50000	5.500E-04
5.882000	1.50000	5.200E-04
5.917000	1.50000	5.200E-04
5.952000	1.50000	5.200E-04
5.988000	1.50000	5.200E-04
6.024000	1.50000	5.400E-04
6.061000	1.50000	6.700E-04
6.098000	1.50000	1.200E-03
6.135000	1.50000	8.800E-04
6.173000	1.50000	8.300E-04
6.211000	1.50000	8.700E-04
6.250000	1.50000	9.200E-04
6.289000	1.50000	9.900E-04
6.329000	1.50000	9.700E-04
6.369000	1.50000	9.000E-04
6.410000	1.50000	9.000E-04
6.452000	1.50000	9.700E-04
6.494000	1.50000	1.000E-03
6.536000	1.50000	1.200E-03
6.579000	1.50000	1.300E-03
6.623000	1.50000	1.600E-03
6.667000	1.50000	2.900E-03
6.711000	1.50000	5.400E-03
6.734000	1.50000	1.700E-02
6.757000	1.50000	4.500E-02
6.780000	1.50000	3.500E-02
6.803000	1.50000	3.000E-02
6.826000	1.50000	5.500E-02
6.849000	1.50000	2.800E-02
6.897000	1.50000	8.500E-03
6.944000	1.50000	5.900E-03
6.993000	1.50000	4.100E-03
7.042000	1.50000	3.000E-03
7.092000	1.50000	2.400E-03
7.143000	1.50000	2.100E-03
7.194000	1.50000	1.200E-03
7.246000	1.50000	1.600E-03
7.273000	1.50000	2.200E-03
7.299000	1.50000	2.900E-03
7.326000	1.50000	2.800E-03
7.353000	1.50000	2.500E-03
7.380000	1.50000	2.400E-03
7.407000	1.50000	2.400E-03
7.436000	1.50000	2.100E-03
7.519000	1.50000	1.500E-03
7.576000	1.50000	1.500E-03
7.634000	1.50000	1.900E-03
7.692000	1.50000	2.000E-03
7.752000	1.50000	1.800E-03
7.813000	1.50000	1.600E-03
7.874000	1.50000	1.300E-03
7.937000	1.50000	1.200E-03
8.000000	1.50000	1.100E-03
8.065000	1.50000	1.000E-03
8.130000	1.50000	1.000E-03
8.197000	1.50000	9.600E-04
8.264000	1.50000	9.200E-04
8.333000	1.50000	8.900E-04
8.403000	1.50000	9.300E-04
8.439000	1.50000	9.100E-04
8.475000	1.50000	9.400E-04
8.511000	1.50000	1.200E-03
8.547000	1.50000	9.900E-04
8.584000	1.50000	9.700E-04
8.621000	1.50000	9.900E-04
8.696000	1.50000	9.500E-04
8.772000	1.50000	9.600E-04
8.850000	1.50000	9.900E-04
8.929000	1.50000	1.100E-03
9.009000	1.50000	1.100E-03
9.091000	1.50000	9.400E-04
9.170000	1.50000	1.100E-03
9.259000	1.50000	1.300E-03
9.302000	1.50000	1.300E-03
9.346000	1.50000	1.200E-03
9.390000	1.50000	1.200E-03
9.434000	1.50000	1.100E-03
9.479000	1.50000	1.100E-03
9.524000	1.50000	1.100E-03
9.569000	1.50000	9.300E-04
9.615000	1.50000	9.200E-04
9.709000	1.50000	8.200E-04
9.804000	1.50000	8.100E-04
9.901000	1.50000	8.300E-04
10.000000	1.50000	1.000E-03
10.050000	1.50000	1.300E-03
10.100000	1.50000	1.500E-03
10.150000	1.50000	1.300E-03
10.200000	1.50000	1.100E-03
10.260000	1.50000	8.000E-04
10.310000	1.50000	8.400E-04
10.360000	1.50000	9.100E-04
10.420000	1.50000	8.500E-04
10.470000	1.50000	8.300E-04
10.530000	1.50000	8.200E-04
10.640000	1.50000	8.300E-04
10.750000	1.50000	8.700E-04
10.870000	1.50000	1.300E-03
10.930000	1.50000	1.600E-03
10.960000	1.50000	2.300E-03
10.990000	1.50000	3.500E-03
11.020000	1.50000	3.600E-03
11.050000	1.50000	2.700E-03
11.110000	1.50000	1.700E-03
11.240000	1.50000	9.000E-04
11.360000	1.50000	8.100E-04
11.490000	1.50000	6.700E-04
11.630000	1.50000	7.200E-04
11.760000	1.50000	7.600E-04
11.900000	1.50000	7.800E-04
12.050000	1.50000	8.200E-04
12.200000	1.50000	8.700E-04
12.350000	1.50000	9.500E-04
12.500000	1.50000	1.000E-03
12.660000	1.50000	1.100E-03
12.820000	1.50000	1.100E-03
12.990000	1.50000	1.300E-03
13.160000	1.50000	1.600E-03
13.330000	1.50000	2.300E-03
13.510000	1.50000	6.400E-03
13.610000	1.50000	1.900E-02
13.700000	1.50000	8.100E-02
13.790000	1.50000	2.900E-02
13.890000	1.50000	7.000E-02
13.990000	1.50000	1.900E-02
14.080000	1.50000	1.200E-02
14.290000	1.50000	3.500E-03
14.490000	1.50000	1.900E-03
14.710000	1.50000	1.500E-03
14.930000	1.50000	1.200E-03
22.260000	1.51390	7.700E-04
22.360000	1.51388	7.900E-04
22.460000	1.51384	7.300E-04
22.560000	1.51381	7.500E-04
22.650000	1.51380	9.000E-04
22.760000	1.51380	7.500E-04
22.860000	1.51378	6.800E-04
22.960000	1.51376	7.000E-04
23.060000	1.51375	7.100E-04
23.170000	1.51375	7.100E-04
23.270000	1.51374	7.000E-04
23.380000	1.51373	6.900E-04
23.490000	1.51371	7.000E-04
23.590000	1.51372	7.100E-04
23.700000	1.51371	7.000E-04
23.810000	1.51370	6.700E-04
23.930000	1.51369	6.700E-04
24.040000	1.51368	6.900E-04
24.150000	1.51367	7.000E-04
24.270000	1.51365	6.900E-04
24.380000	1.51364	6.700E-04
24.500000	1.51362	6.700E-04
24.620000	1.51361	6.800E-04
24.730000	1.51360	6.800E-04
24.850000	1.51358	6.700E-04
24.980000	1.51357	6.500E-04
25.100000	1.51355	6.500E-04
25.220000	1.51355	6.600E-04
25.350000	1.51354	6.600E-04
25.470000	1.51354	6.700E-04
25.600000	1.51352	6.800E-04
25.730000	1.51350	6.800E-04
25.860000	1.51349	6.900E-04
25.990000	1.51348	7.100E-04
26.120000	1.51346	7.100E-04
26.260000	1.51344	6.900E-04
26.390000	1.51343	7.000E-04
26.530000	1.51342	7.100E-04
26.670000	1.51341	7.100E-04
26.810000	1.51342	7.000E-04
26.950000	1.51342	7.100E-04
27.090000	1.51341	7.100E-04
27.230000	1.51341	7.000E-04
27.380000	1.51340	6.900E-04
27.530000	1.51339	6.900E-04
27.680000	1.51338	6.900E-04
27.830000	1.51337	6.800E-04
27.980000	1.51336	6.700E-04
28.130000	1.51334	6.700E-04
28.290000	1.51333	6.700E-04
28.440000	1.51332	6.700E-04
28.600000	1.51332	6.600E-04
28.760000	1.51331	6.600E-04
28.930000	1.51330	6.600E-04
29.090000	1.51329	6.600E-04
29.260000	1.51328	6.600E-04
29.430000	1.51328	6.600E-04
29.600000	1.51327	6.600E-04
29.770000	1.51327	6.600E-04
29.940000	1.51326	6.600E-04
30.120000	1.51325	6.600E-04
30.300000	1.51324	6.500E-04
30.480000	1.51323	6.600E-04
30.660000	1.51322	6.600E-04
30.840000	1.51322	6.600E-04
31.030000	1.51321	6.600E-04
31.220000	1.51321	6.600E-04
31.410000	1.51320	6.600E-04
31.600000	1.51320	6.700E-04
31.800000	1.51319	6.700E-04
32.000000	1.51319	6.600E-04
32.200000	1.51319	6.600E-04
32.410000	1.51318	6.700E-04
32.610000	1.51318	6.800E-04
32.820000	1.51317	6.800E-04
33.030000	1.51316	6.800E-04
33.250000	1.51315	6.800E-04
33.460000	1.51315	6.900E-04
33.680000	1.51315	7.000E-04
33.910000	1.51316	7.000E-04
34.130000	1.51316	7.000E-04
34.360000	1.51315	7.100E-04
34.590000	1.51315	7.200E-04
34.830000	1.51315	7.200E-04
35.070000	1.51314	7.200E-04
35.310000	1.51314	7.300E-04
35.560000	1.51314	7.300E-04
35.800000	1.51314	7.400E-04
36.060000	1.51313	7.600E-04
36.310000	1.51314	7.700E-04
36.570000	1.51314	7.700E-04
36.830000	1.51314	7.800E-04
37.100000	1.51314	7.800E-04
37.370000	1.51314	7.900E-04
37.650000	1.51314	7.900E-04
37.930000	1.51313	8.000E-04
38.210000	1.51313	8.000E-04
38.500000	1.51313	8.100E-04
38.790000	1.51313	8.200E-04
39.080000	1.51313	8.300E-04
39.380000	1.51312	8.500E-04
39.690000	1.51311	8.600E-04
40.000000	1.51311	8.700E-04
40.310000	1.51310	8.800E-04
40.630000	1.51310	8.800E-04
40.960000	1.51310	8.900E-04
41.290000	1.51310	9.100E-04
41.630000	1.51310	9.200E-04
41.970000	1.51310	9.400E-04
42.310000	1.51310	9.500E-04
42.670000	1.51310	9.600E-04
43.030000	1.51310	9.600E-04
43.390000	1.51310	9.700E-04
43.760000	1.51310	9.800E-04
44.140000	1.51309	9.900E-04
44.520000	1.51308	9.900E-04
44.910000	1.51309	1.010E-03
45.310000	1.51309	1.020E-03
45.710000	1.51309	1.040E-03
46.130000	1.51309	1.070E-03
46.550000	1.51310	1.070E-03
46.970000	1.51310	1.060E-03
47.410000	1.51310	1.060E-03
47.850000	1.51310	1.060E-03
48.300000	1.51311	1.080E-03
48.760000	1.51311	1.110E-03
49.230000	1.51310	1.120E-03
49.710000	1.51309	1.140E-03
50.200000	1.51310	1.150E-03
50.690000	1.51311	1.150E-03
51.200000	1.51311	1.170E-03
51.720000	1.51312	1.190E-03
52.240000	1.51313	1.180E-03
52.780000	1.51313	1.160E-03
53.330000	1.51313	1.180E-03
53.890000	1.51314	1.200E-03
54.470000	1.51315	1.200E-03
55.050000	1.51316	1.190E-03
55.650000	1.51316	1.190E-03
56.260000	1.51316	1.200E-03
56.890000	1.51317	1.220E-03
57.530000	1.51318	1.240E-03
58.180000	1.51319	1.220E-03
58.850000	1.51318	1.220E-03
59.530000	1.51318	1.240E-03
60.240000	1.51319	1.250E-03
60.950000	1.51320	1.260E-03
61.690000	1.51321	1.260E-03
62.440000	1.51321	1.250E-03
63.210000	1.51321	1.250E-03
64.000000	1.51321	1.250E-03
64.810000	1.51322	1.260E-03
65.640000	1.51322	1.270E-03
66.490000	1.51320	1.280E-03
67.370000	1.5132	1.270E-03
68.270000	1.5132	1.290E-03
69.190000	1.5132	1.310E-03
70.140000	1.5132	1.310E-03
71.110000	1.5132	1.300E-03
72.110000	1.5132	1.300E-03
73.140000	1.5132	1.310E-03
74.200000	1.5132	1.320E-03
75.290000	1.5132	1.320E-03
76.420000	1.5132	1.340E-03
77.580000	1.5132	1.340E-03
78.770000	1.5132	1.330E-03
80.000000	1.5132	1.320E-03
81.270000	1.5133	1.300E-03
82.580000	1.5133	1.280E-03
83.930000	1.5133	1.270E-03
85.330000	1.5133	1.270E-03
86.780000	1.5133	1.260E-03
88.280000	1.5133	1.280E-03
89.820000	1.5133	1.270E-03
91.430000	1.5133	1.250E-03
93.090000	1.5133	1.240E-03
94.810000	1.5133	1.230E-03
96.600000	1.5133	1.230E-03
98.460000	1.5133	1.260E-03
100.400000	1.5133	1.290E-03
102.400000	1.5132	1.280E-03
104.500000	1.5133	1.270E-03
106.700000	1.5133	1.280E-03
108.900000	1.5133	1.280E-03
111.300000	1.5133	1.250E-03
113.800000	1.5133	1.230E-03
116.400000	1.5133	1.230E-03
119.100000	1.5132	1.230E-03
121.900000	1.5132	1.240E-03
124.900000	1.5132	1.300E-03
128.000000	1.5132	1.420E-03
131.300000	1.5131	1.590E-03
134.700000	1.5132	2.010E-03
138.400000	1.5133	2.320E-03
142.200000	1.5136	1.880E-03
146.300000	1.5138	1.500E-03
150.600000	1.5139	1.290E-03
155.100000	1.5139	1.150E-03
160.000000	1.5138	1.090E-03
165.200000	1.5138	1.090E-03
200.000000	1.5138	6.200E-04
222.200000	1.51380	5.600E-04
250.000000	1.51380	5.100E-04
285.700000	1.51380	4.500E-04
333.300000	1.51380	4.000E-04
400.000000	1.51380	3.400E-04
500.000000	1.51380	2.900E-04
666.700000	1.51380	2.300E-04
1000.000000	1.51380	1.700E-04
2000.000000	1.51380	1.200E-04