"Tdif_PMMApaint_15vv - RawData"
"Wavelength nm.","T%"
220.00,0.008
221.00,0.013
222.00,0.028
223.00,0.026
224.00,0.035
225.00,0.027
226.00,0.039
227.00,0.027
228.00,0.022
229.00,0.008
230.00,0.026
231.00,0.026
232.00,0.042
233.00,0.039
234.00,0.044
235.00,0.047
236.00,0.052
237.00,0.048
238.00,0.025
239.00,0.014
240.00,0.013
241.00,0.023
242.00,0.010
243.00,0.012
244.00,0.008
245.00,0.009
246.00,0.000
247.00,0.004
248.00,0.012
249.00,0.020
250.00,0.011
251.00,0.008
252.00,0.003
253.00,0.010
254.00,0.011
255.00,0.009
256.00,0.007
257.00,0.002
258.00,0.008
259.00,0.002
260.00,0.005
261.00,0.002
262.00,0.007
263.00,0.002
264.00,0.006
265.00,0.001
266.00,0.000
267.00,-0.003
268.00,0.003
269.00,0.004
270.00,0.002
271.00,0.002
272.00,0.005
273.00,0.006
274.00,0.004
275.00,-0.002
276.00,-0.002
277.00,-0.004
278.00,0.001
279.00,0.002
280.00,0.004
281.00,0.006
282.00,0.008
283.00,0.006
284.00,0.005
285.00,0.004
286.00,0.004
287.00,0.001
288.00,-0.002
289.00,-0.001
290.00,0.001
291.00,0.005
292.00,0.004
293.00,0.004
294.00,0.001
295.00,0.001
296.00,-0.001
297.00,0.000
298.00,0.002
299.00,0.005
300.00,0.006
301.00,0.005
302.00,0.004
303.00,0.004
304.00,0.003
305.00,0.003
306.00,0.003
307.00,0.002
308.00,0.006
309.00,0.010
310.00,0.015
311.00,0.016
312.00,0.021
313.00,0.025
314.00,0.032
315.00,0.042
316.00,0.055
317.00,0.068
318.00,0.082
319.00,0.098
320.00,0.120
321.00,0.145
322.00,0.172
323.00,0.211
324.00,0.259
325.00,0.310
326.00,0.363
327.00,0.410
328.00,0.478
329.00,0.541
330.00,0.618
331.00,0.696
332.00,0.777
333.00,0.865
334.00,0.941
335.00,1.045
336.00,1.145
337.00,1.254
338.00,1.348
339.00,1.441
340.00,1.537
341.00,1.644
342.00,1.748
343.00,1.871
344.00,1.964
345.00,2.082
346.00,2.178
347.00,2.290
348.00,2.375
349.00,2.468
350.00,2.564
351.00,2.662
352.00,2.754
353.00,2.847
354.00,2.957
355.00,3.070
356.00,3.165
357.00,3.245
358.00,3.318
359.00,3.423
360.00,3.513
361.00,3.613
362.00,3.694
363.00,3.771
364.00,3.843
365.00,3.924
366.00,3.987
367.00,4.071
368.00,4.132
369.00,4.223
370.00,4.294
371.00,4.350
372.00,4.407
373.00,4.441
374.00,4.489
375.00,4.522
376.00,4.568
377.00,4.610
378.00,4.654
379.00,4.698
380.00,4.731
381.00,4.782
382.00,4.830
383.00,4.899
384.00,4.957
385.00,5.028
386.00,5.093
387.00,5.165
388.00,5.229
389.00,5.307
390.00,5.379
391.00,5.447
392.00,5.505
393.00,5.566
394.00,5.619
395.00,5.685
396.00,5.736
397.00,5.803
398.00,5.849
399.00,5.890
400.00,5.927
401.00,5.966
402.00,6.013
403.00,6.052
404.00,6.098
405.00,6.143
406.00,6.190
407.00,6.220
408.00,6.251
409.00,6.277
410.00,6.305
411.00,6.339
412.00,6.366
413.00,6.403
414.00,6.427
415.00,6.466
416.00,6.488
417.00,6.520
418.00,6.539
419.00,6.576
420.00,6.600
421.00,6.638
422.00,6.665
423.00,6.703
424.00,6.733
425.00,6.761
426.00,6.796
427.00,6.832
428.00,6.874
429.00,6.909
430.00,6.931
431.00,6.950
432.00,6.974
433.00,7.000
434.00,7.021
435.00,7.045
436.00,7.064
437.00,7.092
438.00,7.115
439.00,7.158
440.00,7.180
441.00,7.203
442.00,7.216
443.00,7.245
444.00,7.277
445.00,7.296
446.00,7.319
447.00,7.334
448.00,7.351
449.00,7.370
450.00,7.397
451.00,7.437
452.00,7.468
453.00,7.485
454.00,7.510
455.00,7.532
456.00,7.578
457.00,7.602
458.00,7.628
459.00,7.641
460.00,7.664
461.00,7.692
462.00,7.713
463.00,7.724
464.00,7.739
465.00,7.767
466.00,7.798
467.00,7.818
468.00,7.835
469.00,7.855
470.00,7.869
471.00,7.883
472.00,7.893
473.00,7.916
474.00,7.931
475.00,7.944
476.00,7.950
477.00,7.972
478.00,7.997
479.00,8.023
480.00,8.040
481.00,8.054
482.00,8.077
483.00,8.096
484.00,8.122
485.00,8.126
486.00,8.136
487.00,8.143
488.00,8.169
489.00,8.182
490.00,8.198
491.00,8.217
492.00,8.243
493.00,8.262
494.00,8.265
495.00,8.287
496.00,8.302
497.00,8.324
498.00,8.336
499.00,8.351
500.00,8.363
501.00,8.373
502.00,8.379
503.00,8.393
504.00,8.399
505.00,8.416
506.00,8.424
507.00,8.427
508.00,8.440
509.00,8.453
510.00,8.480
511.00,8.497
512.00,8.520
513.00,8.541
514.00,8.555
515.00,8.565
516.00,8.571
517.00,8.578
518.00,8.581
519.00,8.589
520.00,8.603
521.00,8.626
522.00,8.633
523.00,8.651
524.00,8.655
525.00,8.672
526.00,8.670
527.00,8.691
528.00,8.708
529.00,8.728
530.00,8.731
531.00,8.732
532.00,8.755
533.00,8.770
534.00,8.781
535.00,8.790
536.00,8.806
537.00,8.825
538.00,8.827
539.00,8.836
540.00,8.844
541.00,8.856
542.00,8.876
543.00,8.891
544.00,8.899
545.00,8.897
546.00,8.895
547.00,8.908
548.00,8.910
549.00,8.928
550.00,8.931
551.00,8.952
552.00,8.962
553.00,8.979
554.00,8.981
555.00,9.002
556.00,9.015
557.00,9.030
558.00,9.033
559.00,9.038
560.00,9.055
561.00,9.062
562.00,9.072
563.00,9.067
564.00,9.065
565.00,9.067
566.00,9.082
567.00,9.101
568.00,9.115
569.00,9.125
570.00,9.126
571.00,9.127
572.00,9.129
573.00,9.147
574.00,9.167
575.00,9.176
576.00,9.175
577.00,9.180
578.00,9.191
579.00,9.202
580.00,9.204
581.00,9.205
582.00,9.217
583.00,9.229
584.00,9.237
585.00,9.242
586.00,9.251
587.00,9.264
588.00,9.271
589.00,9.274
590.00,9.270
591.00,9.269
592.00,9.269
593.00,9.274
594.00,9.279
595.00,9.291
596.00,9.305
597.00,9.309
598.00,9.320
599.00,9.321
600.00,9.327
601.00,9.319
602.00,9.320
603.00,9.321
604.00,9.334
605.00,9.346
606.00,9.368
607.00,9.369
608.00,9.370
609.00,9.366
610.00,9.374
611.00,9.372
612.00,9.373
613.00,9.370
614.00,9.387
615.00,9.387
616.00,9.401
617.00,9.389
618.00,9.410
619.00,9.406
620.00,9.419
621.00,9.411
622.00,9.420
623.00,9.428
624.00,9.441
625.00,9.439
626.00,9.446
627.00,9.446
628.00,9.457
629.00,9.456
630.00,9.457
631.00,9.459
632.00,9.458
633.00,9.460
634.00,9.480
635.00,9.486
636.00,9.502
637.00,9.476
638.00,9.481
639.00,9.481
640.00,9.502
641.00,9.510
642.00,9.508
643.00,9.514
644.00,9.521
645.00,9.523
646.00,9.533
647.00,9.518
648.00,9.520
649.00,9.503
650.00,9.519
651.00,9.527
652.00,9.533
653.00,9.535
654.00,9.538
655.00,9.549
656.00,9.564
657.00,9.562
658.00,9.551
659.00,9.544
660.00,9.551
661.00,9.554
662.00,9.558
663.00,9.572
664.00,9.598
665.00,9.605
666.00,9.604
667.00,9.595
668.00,9.583
669.00,9.589
670.00,9.603
671.00,9.605
672.00,9.593
673.00,9.585
674.00,9.584
675.00,9.584
676.00,9.591
677.00,9.602
678.00,9.611
679.00,9.603
680.00,9.610
681.00,9.608
682.00,9.605
683.00,9.608
684.00,9.608
685.00,9.621
686.00,9.626
687.00,9.640
688.00,9.638
689.00,9.631
690.00,9.625
691.00,9.623
692.00,9.617
693.00,9.640
694.00,9.647
695.00,9.664
696.00,9.657
697.00,9.647
698.00,9.642
699.00,9.636
700.00,9.654
701.00,9.663
702.00,9.660
703.00,9.654
704.00,9.639
705.00,9.661
706.00,9.666
707.00,9.668
708.00,9.646
709.00,9.659
710.00,9.667
711.00,9.674
712.00,9.678
713.00,9.679
714.00,9.683
715.00,9.658
716.00,9.668
717.00,9.681
718.00,9.668
719.00,9.687
720.00,9.652
721.00,9.684
722.00,9.667
723.00,9.674
724.00,9.683
725.00,9.686
726.00,9.692
727.00,9.668
728.00,9.666
729.00,9.682
730.00,9.703
731.00,9.708
732.00,9.696
733.00,9.689
734.00,9.691
735.00,9.691
736.00,9.697
737.00,9.695
738.00,9.716
739.00,9.711
740.00,9.691
741.00,9.660
742.00,9.661
743.00,9.665
744.00,9.669
745.00,9.651
746.00,9.656
747.00,9.660
748.00,9.664
749.00,9.690
750.00,9.718
751.00,9.729
752.00,9.722
753.00,9.710
754.00,9.714
755.00,9.709
756.00,9.708
757.00,9.708
758.00,9.656
759.00,9.655
760.00,9.647
761.00,9.652
762.00,9.648
763.00,9.648
764.00,9.683
765.00,9.690
766.00,9.722
767.00,9.735
768.00,9.719
769.00,9.686
770.00,9.672
771.00,9.677
772.00,9.670
773.00,9.673
774.00,9.687
775.00,9.660
776.00,9.657
777.00,9.660
778.00,9.703
779.00,9.712
780.00,9.681
781.00,9.654
782.00,9.632
783.00,9.664
784.00,9.714
785.00,9.733
786.00,9.707
787.00,9.642
788.00,9.631
789.00,9.633
790.00,9.670
791.00,9.698
792.00,9.723
793.00,9.731
794.00,9.694
795.00,9.727
796.00,9.692
797.00,9.721
798.00,9.711
799.00,9.757
800.00,9.736
801.00,9.690
802.00,9.678
803.00,9.676
804.00,9.671
805.00,9.632
806.00,9.635
807.00,9.665
808.00,9.683
809.00,9.682
810.00,9.682
811.00,9.675
812.00,9.688
813.00,9.655
814.00,9.642
815.00,9.604
816.00,9.634
817.00,9.653
818.00,9.728
819.00,9.734
820.00,9.757
821.00,9.701
822.00,9.657
823.00,9.624
824.00,9.662
825.00,9.698
826.00,9.742
827.00,9.735
828.00,9.748
829.00,9.729
830.00,9.753
831.00,9.758
832.00,9.824
833.00,9.846
834.00,9.849
835.00,9.848
836.00,9.797
837.00,9.848
838.00,9.844
839.00,9.905
840.00,9.878
841.00,9.838
842.00,9.810
843.00,9.830
844.00,9.850
845.00,9.807
846.00,9.765
847.00,9.833
848.00,9.849
849.00,9.774
850.00,9.737
851.00,9.705
852.00,9.799
853.00,9.762
854.00,9.780
855.00,9.759
856.00,9.724
857.00,9.748
858.00,9.752
859.00,9.816
860.00,9.831
861.00,9.796
862.00,9.779
863.00,9.781
864.00,9.851
865.00,9.892
866.00,9.899
867.00,9.846
868.00,9.741
869.00,9.703
870.00,9.735
871.00,9.880
872.00,9.919
873.00,9.944
874.00,9.869
875.00,9.855
876.00,9.754
877.00,9.700
878.00,9.716
879.00,9.709
880.00,9.761
881.00,9.745
882.00,9.812
883.00,9.773
884.00,9.821
885.00,9.836
886.00,9.841
887.00,9.822
888.00,9.816
889.00,9.838
890.00,9.816
891.00,9.830
892.00,9.844
893.00,9.828
894.00,9.843
895.00,9.832
896.00,9.856
897.00,9.855
898.00,9.876
899.00,9.873
900.00,9.872
901.00,9.850
902.00,9.840
903.00,9.797
904.00,9.829
905.00,9.801
906.00,9.806
907.00,9.740
908.00,9.780
909.00,9.803
910.00,9.870
911.00,9.850
912.00,9.859
913.00,9.809
914.00,9.845
915.00,9.858
916.00,9.885
917.00,9.827
918.00,9.804
919.00,9.814
920.00,9.855
921.00,9.894
922.00,9.887
923.00,9.882
924.00,9.812
925.00,9.778
926.00,9.743
927.00,9.806
928.00,9.797
929.00,9.849
930.00,9.818
931.00,9.880
932.00,9.879
933.00,9.862
934.00,9.869
935.00,9.880
936.00,9.918
937.00,9.861
938.00,9.839
939.00,9.828
940.00,9.841
941.00,9.862
942.00,9.911
943.00,9.933
944.00,9.922
945.00,9.882
946.00,9.890
947.00,9.901
948.00,9.889
949.00,9.885
950.00,9.865
951.00,9.872
952.00,9.887
953.00,9.900
954.00,9.946
955.00,9.933
956.00,9.930
957.00,9.905
958.00,9.891
959.00,9.895
960.00,9.888
961.00,9.919
962.00,9.930
963.00,9.953
964.00,9.941
965.00,9.938
966.00,9.929
967.00,9.950
968.00,9.957
969.00,9.974
970.00,9.972
971.00,9.970
972.00,9.946
973.00,9.960
974.00,9.976
975.00,9.985
976.00,9.975
977.00,9.957
978.00,9.943
979.00,9.942
980.00,9.959
981.00,9.996
982.00,9.979
983.00,9.975
984.00,9.935
985.00,9.950
986.00,9.959
987.00,9.978
988.00,10.007
989.00,10.024
990.00,10.022
991.00,10.005
992.00,9.991
993.00,10.013
994.00,10.005
995.00,10.003
996.00,9.987
997.00,9.993
998.00,10.004
999.00,10.017
1000.00,10.013
1001.00,10.008
1002.00,10.032
1003.00,10.066
1004.00,10.065
1005.00,10.057
1006.00,10.039
1007.00,10.033
1008.00,9.998
1009.00,10.019
1010.00,10.047
1011.00,10.067
1012.00,10.050
1013.00,10.035
1014.00,10.046
1015.00,10.070
1016.00,10.125
1017.00,10.120
1018.00,10.116
1019.00,10.071
1020.00,10.067
1021.00,10.075
1022.00,10.090
1023.00,10.084
1024.00,10.080
1025.00,10.061
1026.00,10.098
1027.00,10.105
1028.00,10.118
1029.00,10.103
1030.00,10.099
1031.00,10.098
1032.00,10.075
1033.00,10.067
1034.00,10.071
1035.00,10.097
1036.00,10.088
1037.00,10.087
1038.00,10.092
1039.00,10.092
1040.00,10.110
1041.00,10.108
1042.00,10.122
1043.00,10.126
1044.00,10.141
1045.00,10.135
1046.00,10.141
1047.00,10.135
1048.00,10.134
1049.00,10.113
1050.00,10.109
1051.00,10.132
1052.00,10.158
1053.00,10.169
1054.00,10.181
1055.00,10.161
1056.00,10.147
1057.00,10.146
1058.00,10.173
1059.00,10.204
1060.00,10.225
1061.00,10.220
1062.00,10.199
1063.00,10.204
1064.00,10.206
1065.00,10.224
1066.00,10.203
1067.00,10.205
1068.00,10.197
1069.00,10.218
1070.00,10.235
1071.00,10.247
1072.00,10.240
1073.00,10.217
1074.00,10.217
1075.00,10.197
1076.00,10.228
1077.00,10.229
1078.00,10.260
1079.00,10.244
1080.00,10.268
1081.00,10.281
1082.00,10.294
1083.00,10.296
1084.00,10.268
1085.00,10.272
1086.00,10.248
1087.00,10.264
1088.00,10.265
1089.00,10.306
1090.00,10.314
1091.00,10.308
1092.00,10.239
1093.00,10.237
1094.00,10.220
1095.00,10.260
1096.00,10.272
1097.00,10.296
1098.00,10.315
1099.00,10.323
1100.00,10.344
1101.00,10.352
1102.00,10.347
1103.00,10.342
1104.00,10.351
1105.00,10.341
1106.00,10.341
1107.00,10.317
1108.00,10.324
1109.00,10.341
1110.00,10.355
1111.00,10.368
1112.00,10.354
1113.00,10.362
1114.00,10.346
1115.00,10.359
1116.00,10.341
1117.00,10.340
1118.00,10.316
1119.00,10.303
1120.00,10.307
1121.00,10.321
1122.00,10.349
1123.00,10.335
1124.00,10.326
1125.00,10.301
1126.00,10.311
1127.00,10.285
1128.00,10.273
1129.00,10.220
1130.00,10.194
1131.00,10.142
1132.00,10.131
1133.00,10.093
1134.00,10.061
1135.00,9.985
1136.00,9.955
1137.00,9.915
1138.00,9.899
1139.00,9.840
1140.00,9.813
1141.00,9.768
1142.00,9.779
1143.00,9.778
1144.00,9.790
1145.00,9.797
1146.00,9.803
1147.00,9.831
1148.00,9.861
1149.00,9.904
1150.00,9.940
1151.00,9.959
1152.00,9.983
1153.00,10.051
1154.00,10.129
1155.00,10.191
1156.00,10.227
1157.00,10.241
1158.00,10.297
1159.00,10.327
1160.00,10.376
1161.00,10.373
1162.00,10.378
1163.00,10.412
1164.00,10.447
1165.00,10.489
1166.00,10.492
1167.00,10.508
1168.00,10.492
1169.00,10.465
1170.00,10.475
1171.00,10.491
1172.00,10.545
1173.00,10.523
1174.00,10.522
1175.00,10.491
1176.00,10.482
1177.00,10.497
1178.00,10.465
1179.00,10.479
1180.00,10.470
1181.00,10.490
1182.00,10.462
1183.00,10.446
1184.00,10.445
1185.00,10.444
1186.00,10.398
1187.00,10.379
1188.00,10.393
1189.00,10.434
1190.00,10.434
1191.00,10.433
1192.00,10.425
1193.00,10.448
1194.00,10.440
1195.00,10.431
1196.00,10.436
1197.00,10.472
1198.00,10.456
1199.00,10.450
1200.00,10.392
1201.00,10.435
1202.00,10.396
1203.00,10.419
1204.00,10.424
1205.00,10.463
1206.00,10.497
1207.00,10.505
1208.00,10.511
1209.00,10.523
1210.00,10.530
1211.00,10.588
1212.00,10.604
1213.00,10.639
1214.00,10.640
1215.00,10.661
1216.00,10.672
1217.00,10.677
1218.00,10.694
1219.00,10.686
1220.00,10.703
1221.00,10.704
1222.00,10.691
1223.00,10.661
1224.00,10.665
1225.00,10.727
1226.00,10.757
1227.00,10.770
1228.00,10.804
1229.00,10.851
1230.00,10.845
1231.00,10.812
1232.00,10.814
1233.00,10.821
1234.00,10.831
1235.00,10.841
1236.00,10.877
1237.00,10.907
1238.00,10.913
1239.00,10.927
1240.00,10.933
1241.00,10.941
1242.00,10.945
1243.00,10.937
1244.00,10.899
1245.00,10.878
1246.00,10.877
1247.00,10.885
1248.00,10.906
1249.00,10.924
1250.00,10.957
1251.00,10.978
1252.00,10.988
1253.00,10.994
1254.00,11.002
1255.00,11.002
1256.00,10.995
1257.00,10.991
1258.00,11.020
1259.00,11.016
1260.00,10.986
1261.00,10.971
1262.00,10.993
1263.00,11.014
1264.00,11.018
1265.00,11.043
1266.00,11.087
1267.00,11.110
1268.00,11.093
1269.00,11.088
1270.00,11.095
1271.00,11.135
1272.00,11.129
1273.00,11.075
1274.00,11.045
1275.00,11.041
1276.00,11.097
1277.00,11.115
1278.00,11.122
1279.00,11.099
1280.00,11.093
1281.00,11.101
1282.00,11.140
1283.00,11.140
1284.00,11.157
1285.00,11.141
1286.00,11.166
1287.00,11.168
1288.00,11.194
1289.00,11.201
1290.00,11.207
1291.00,11.179
1292.00,11.176
1293.00,11.177
1294.00,11.208
1295.00,11.184
1296.00,11.164
1297.00,11.141
1298.00,11.147
1299.00,11.201
1300.00,11.255
1301.00,11.304
1302.00,11.270
1303.00,11.227
1304.00,11.180
1305.00,11.221
1306.00,11.213
1307.00,11.248
1308.00,11.236
1309.00,11.314
1310.00,11.338
1311.00,11.323
1312.00,11.319
1313.00,11.289
1314.00,11.319
1315.00,11.265
1316.00,11.296
1317.00,11.311
1318.00,11.352
1319.00,11.364
1320.00,11.378
1321.00,11.360
1322.00,11.372
1323.00,11.388
1324.00,11.411
1325.00,11.427
1326.00,11.425
1327.00,11.454
1328.00,11.436
1329.00,11.429
1330.00,11.423
1331.00,11.441
1332.00,11.433
1333.00,11.421
1334.00,11.447
1335.00,11.487
1336.00,11.529
1337.00,11.514
1338.00,11.500
1339.00,11.476
1340.00,11.481
1341.00,11.486
1342.00,11.551
1343.00,11.541
1344.00,11.556
1345.00,11.542
1346.00,11.549
1347.00,11.553
1348.00,11.536
1349.00,11.554
1350.00,11.580
1351.00,11.575
1352.00,11.579
1353.00,11.564
1354.00,11.602
1355.00,11.609
1356.00,11.623
1357.00,11.605
1358.00,11.630
1359.00,11.657
1360.00,11.664
1361.00,11.639
1362.00,11.667
1363.00,11.690
1364.00,11.708
1365.00,11.651
1366.00,11.644
1367.00,11.656
1368.00,11.675
1369.00,11.666
1370.00,11.679
1371.00,11.700
1372.00,11.727
1373.00,11.679
1374.00,11.615
1375.00,11.583
1376.00,11.568
1377.00,11.581
1378.00,11.599
1379.00,11.678
1380.00,11.678
1381.00,11.706
1382.00,11.667
1383.00,11.704
1384.00,11.634
1385.00,11.659
1386.00,11.617
1387.00,11.615
1388.00,11.589
1389.00,11.668
1390.00,11.727
1391.00,11.759
1392.00,11.718
1393.00,11.708
1394.00,11.679
1395.00,11.660
1396.00,11.646
1397.00,11.648
1398.00,11.639
1399.00,11.595
1400.00,11.553
