# Refractive index of bismuth vanadate (BiVO4) a-c facets. 
# Extracted from Zhao et al “Electronic Structure and Optical Properties of Monoclinic Clinobisvanite BiVO4.” 
# Physical Chemistry Chemical Physics 13, no. 10 (2011): 4746. https://doi.org/10.1039/c0cp01871f.
#
# First column:		Wavelength (in um)
# Second column:	refractive index
# Third column:		extinction coefficient
#
0.062574	0.504382	3.55564e-01
0.063160	0.481279	3.21955e-01
0.063236	0.482901	3.14383e-01
0.063828	0.479442	2.15189e-01
0.063946	0.455306	2.05661e-01
0.064637	0.287179	1.59068e-01
0.065209	0.177476	2.48709e-01
0.065308	0.155928	2.81395e-01
0.065887	0.071600	4.49926e-01
0.065993	0.064549	4.66238e-01
0.066652	0.154400	5.78386e-01
0.066841	0.180369	5.88476e-01
0.067597	0.278526	6.35172e-01
0.068236	0.266332	6.37822e-01
0.068370	0.261869	6.43117e-01
0.069018	0.247351	6.70704e-01
0.069201	0.234592	7.04179e-01
0.070053	0.207992	8.49911e-01
0.070590	0.278848	9.50965e-01
0.070718	0.309023	9.78150e-01
0.070883	0.353041	9.91570e-01
0.071221	0.427973	1.01796e+00
0.071558	0.478375	1.03754e+00
0.071691	0.499180	1.04208e+00
0.072167	0.570479	1.06001e+00
0.072341	0.633163	1.08860e+00
0.072417	0.659798	1.10155e+00
0.072517	0.709163	1.09413e+00
0.072767	0.789689	1.05271e+00
0.072871	0.825342	1.03486e+00
0.073076	0.844382	9.56690e-01
0.073228	0.862186	8.97452e-01
0.073362	0.848248	8.10849e-01
0.073387	0.841102	7.88996e-01
0.073452	0.799678	7.50833e-01
0.073770	0.731345	7.09688e-01
0.074292	0.691910	7.21100e-01
0.074598	0.674489	7.22441e-01
0.075219	0.651655	7.36985e-01
0.075445	0.649128	7.35951e-01
0.076169	0.628380	7.21589e-01
0.076459	0.609106	7.28705e-01
0.077194	0.616773	7.91294e-01
0.077499	0.636526	7.95208e-01
0.078246	0.639750	7.69260e-01
0.078517	0.631389	7.71477e-01
0.079275	0.619228	7.86576e-01
0.079562	0.615062	7.91883e-01
0.080332	0.624489	8.21296e-01
0.080635	0.629308	8.30989e-01
0.081527	0.624298	8.44464e-01
0.081738	0.622594	8.48368e-01
0.082645	0.658557	8.96022e-01
0.082871	0.674670	8.97179e-01
0.083794	0.702508	8.74726e-01
0.084036	0.704140	8.76078e-01
0.085095	0.682965	8.59330e-01
0.085234	0.674715	8.64091e-01
0.086313	0.676997	9.47872e-01
0.086342	0.678390	9.48157e-01
0.086970	0.743272	9.80541e-01
0.087351	0.799959	1.01542e+00
0.087567	0.812826	1.02066e+00
0.088189	0.909452	9.66350e-01
0.088208	0.910283	9.62656e-01
0.088844	0.916026	8.67086e-01
0.089121	0.911465	8.14519e-01
0.089308	0.888500	7.96388e-01
0.090116	0.822081	7.56560e-01
0.090527	0.797559	7.47410e-01
0.091216	0.733578	7.54137e-01
0.091977	0.747666	8.40833e-01
0.092059	0.756326	8.41818e-01
0.093207	0.793928	7.80603e-01
0.093402	0.788179	7.57507e-01
0.093939	0.732288	7.30815e-01
0.094873	0.651434	7.06856e-01
0.094984	0.634869	7.11390e-01
0.096082	0.538329	8.13925e-01
0.096440	0.513282	8.45229e-01
0.097145	0.546554	9.49988e-01
0.097324	0.549600	9.71683e-01
0.098921	0.662627	1.00231e+00
0.099077	0.672668	1.00592e+00
0.100577	0.652363	9.62638e-01
0.100655	0.655884	9.63474e-01
0.102452	0.678505	1.06208e+00
0.103359	0.717656	1.06494e+00
0.104223	0.758419	1.07183e+00
0.104717	0.800616	1.04960e+00
0.105500	0.796170	9.57919e-01
0.105549	0.792724	9.56028e-01
0.106111	0.733603	9.19239e-01
0.106774	0.671248	8.84417e-01
0.107189	0.621190	8.56054e-01
0.107446	0.569961	8.66011e-01
0.108151	0.506012	9.45147e-01
0.108815	0.466480	9.94614e-01
0.109526	0.465203	1.06304e+00
0.110627	0.471818	1.14680e+00
0.111347	0.472922	1.19634e+00
0.113443	0.502647	1.26507e+00
0.114549	0.513942	1.30725e+00
0.115619	0.508678	1.34000e+00
0.116787	0.492428	1.40548e+00
0.117421	0.498231	1.44429e+00
0.118759	0.510515	1.52123e+00
0.119162	0.518282	1.54475e+00
0.120191	0.531413	1.62047e+00
0.120472	0.552857	1.64624e+00
0.120676	0.569444	1.66071e+00
0.121165	0.610046	1.69570e+00
0.121659	0.648056	1.72997e+00
0.122156	0.684732	1.76386e+00
0.122181	0.688636	1.76639e+00
0.122406	0.728689	1.77349e+00
0.122909	0.776722	1.77402e+00
0.123289	0.822675	1.77984e+00
0.123928	0.870699	1.77796e+00
0.123940	0.871159	1.77774e+00
0.124968	0.928990	1.72669e+00
0.125358	0.951145	1.70831e+00
0.126013	0.953287	1.65762e+00
0.126552	0.935759	1.64978e+00
0.127225	0.894293	1.62935e+00
0.128156	0.853778	1.61125e+00
0.128180	0.852154	1.61192e+00
0.129533	0.827075	1.68465e+00
0.129850	0.825537	1.69331e+00
0.130702	0.857498	1.73372e+00
0.131565	0.885094	1.77160e+00
0.131799	0.888685	1.77982e+00
0.133029	0.920563	1.79516e+00
0.134746	0.922320	1.79500e+00
0.136056	0.901685	1.83856e+00
0.136578	0.898976	1.85805e+00
0.137985	0.885568	1.92386e+00
0.138099	0.883838	1.93066e+00
0.138740	0.904413	1.98177e+00
0.139099	0.922006	2.01255e+00
0.139225	0.930723	2.01735e+00
0.139550	0.965454	2.03564e+00
0.140204	0.997895	2.05524e+00
0.140534	1.030509	2.07327e+00
0.141700	1.061612	2.09581e+00
0.142050	1.067447	2.10081e+00
0.143399	1.075172	2.14800e+00
0.144087	1.092215	2.17790e+00
0.144264	1.096372	2.18582e+00
0.144964	1.118672	2.21972e+00
0.145316	1.145790	2.24466e+00
0.145670	1.170578	2.26846e+00
0.146184	1.184970	2.29168e+00
0.146384	1.192454	2.29685e+00
0.146743	1.221373	2.31429e+00
0.147104	1.249860	2.33173e+00
0.147467	1.276888	2.34858e+00
0.148015	1.304323	2.36698e+00
0.148382	1.331047	2.38403e+00
0.148751	1.356964	2.40081e+00
0.149122	1.382978	2.41780e+00
0.149446	1.405661	2.43274e+00
0.149495	1.410085	2.43328e+00
0.149682	1.439261	2.44270e+00
0.150247	1.475697	2.44159e+00
0.150436	1.503762	2.45108e+00
0.150815	1.535459	2.45555e+00
0.151196	1.567809	2.46083e+00
0.151772	1.602820	2.46071e+00
0.152159	1.633330	2.46564e+00
0.152470	1.652424	2.46625e+00
0.152742	1.673432	2.46024e+00
0.153245	1.701085	2.44182e+00
0.153921	1.722744	2.43950e+00
0.154518	1.752771	2.44554e+00
0.155321	1.786645	2.44965e+00
0.155523	1.811563	2.46283e+00
0.155619	1.817997	2.46516e+00
0.155929	1.839932	2.47081e+00
0.156337	1.868746	2.47852e+00
0.156746	1.896759	2.48593e+00
0.156952	1.921733	2.49817e+00
0.157159	1.947251	2.51103e+00
0.157243	1.955198	2.51439e+00
0.157989	2.036584	2.52803e+00
0.158068	2.043247	2.52808e+00
0.158408	2.083067	2.51474e+00
0.158484	2.093583	2.51322e+00
0.158901	2.152143	2.50426e+00
0.159252	2.200100	2.49818e+00
0.159321	2.207939	2.49560e+00
0.159677	2.247809	2.48277e+00
0.159744	2.258205	2.48313e+00
0.159891	2.280915	2.48411e+00
0.160105	2.312968	2.48503e+00
0.160168	2.317237	2.48050e+00
0.160595	2.346442	2.45000e+00
0.160809	2.375443	2.42027e+00
0.161024	2.405469	2.39024e+00
0.161838	2.491206	2.30864e+00
0.161889	2.494621	2.30158e+00
0.162763	2.557386	2.17969e+00
0.163164	2.572504	2.13734e+00
0.163204	2.572524	2.13122e+00
0.163425	2.588323	2.08507e+00
0.164093	2.574395	1.99638e+00
0.164510	2.555873	1.94820e+00
0.164737	2.546098	1.92206e+00
0.165192	2.460873	1.77903e+00
0.165880	2.465118	1.74124e+00
0.166341	2.446461	1.68453e+00
0.166357	2.446100	1.68297e+00
0.167272	2.373509	1.62631e+00
0.167507	2.350736	1.60579e+00
0.167977	2.321720	1.58920e+00
0.168214	2.309825	1.58488e+00
0.168688	2.269861	1.58742e+00
0.168921	2.253123	1.59302e+00
0.170113	2.195741	1.60241e+00
0.170128	2.195089	1.60248e+00
0.171566	2.144308	1.62319e+00
0.173043	2.093867	1.64445e+00
0.173335	2.079489	1.65231e+00
0.174043	2.055300	1.68460e+00
0.175308	2.024254	1.73348e+00
0.175369	2.023005	1.73564e+00
0.176403	2.014297	1.78651e+00
0.176592	2.013971	1.79699e+00
0.177188	2.019926	1.82356e+00
0.178244	2.065589	1.90758e+00
0.178686	2.075433	1.93192e+00
0.178777	2.080800	1.93376e+00
0.179045	2.107747	1.95133e+00
0.179314	2.133461	1.96777e+00
0.179853	2.164815	1.97930e+00
0.180290	2.189600	1.98839e+00
0.180396	2.194946	1.99114e+00
0.181491	2.267826	2.03993e+00
0.182044	2.294745	2.05422e+00
0.182321	2.316686	2.07096e+00
0.182473	2.328859	2.08036e+00
0.182600	2.341211	2.08613e+00
0.183159	2.377908	2.09216e+00
0.183585	2.408693	2.10061e+00
0.184005	2.450964	2.09836e+00
0.184145	2.451086	2.08134e+00
0.184288	2.451282	2.06403e+00
0.184710	2.482212	2.04913e+00
0.185278	2.523661	2.02973e+00
0.185563	2.562276	2.00617e+00
0.186009	2.593897	1.99251e+00
0.186136	2.600138	1.98508e+00
0.187002	2.627279	1.94686e+00
0.187584	2.655749	1.91430e+00
0.188464	2.683635	1.87706e+00
0.188948	2.699567	1.85656e+00
0.189352	2.709905	1.83521e+00
0.189848	2.732893	1.80247e+00
0.189949	2.737503	1.79575e+00
0.190757	2.742817	1.76293e+00
0.191062	2.735734	1.73620e+00
0.191457	2.738888	1.72073e+00
0.191982	2.740522	1.70193e+00
0.192911	2.743987	1.66935e+00
0.193536	2.741832	1.63982e+00
0.193610	2.742112	1.63720e+00
0.194480	2.738248	1.61070e+00
0.196397	2.744048	1.57648e+00
0.197414	2.748633	1.56102e+00
0.199012	2.772497	1.52789e+00
0.199373	2.777364	1.51955e+00
0.201019	2.800425	1.48170e+00
0.201371	2.804312	1.47171e+00
0.202380	2.809698	1.44634e+00
0.203068	2.807318	1.41707e+00
0.204099	2.810033	1.38511e+00
0.204108	2.809968	1.38488e+00
0.205158	2.802320	1.35773e+00
0.205865	2.793426	1.33141e+00
0.207293	2.787744	1.30341e+00
0.210148	2.788886	1.27391e+00
0.210208	2.789014	1.27325e+00
0.211697	2.786101	1.24347e+00
0.212449	2.779139	1.21578e+00
0.213588	2.774673	1.18713e+00
0.214738	2.770103	1.15755e+00
0.215020	2.767698	1.14712e+00
0.215513	2.756207	1.13194e+00
0.216684	2.734513	1.10922e+00
0.218266	2.709005	1.08741e+00
0.220125	2.685119	1.07645e+00
0.221092	2.672930	1.07071e+00
0.224411	2.632950	1.05485e+00
0.225477	2.623490	1.05790e+00
0.231808	2.598619	1.06362e+00
0.233333	2.592726	1.06478e+00
0.240673	2.577417	1.06525e+00
0.242729	2.573137	1.06503e+00
0.250769	2.569220	1.05917e+00
0.253446	2.571003	1.06464e+00
0.257243	2.578430	1.07013e+00
0.264645	2.594369	1.08541e+00
0.265153	2.595150	1.08575e+00
0.274361	2.594959	1.09764e+00
0.277354	2.600375	1.11414e+00
0.279492	2.605050	1.12529e+00
0.284818	2.616866	1.15306e+00
0.288251	2.629232	1.18126e+00
0.290351	2.653608	1.23480e+00
0.290732	2.658044	1.24435e+00
0.292482	2.706036	1.27428e+00
0.293564	2.732412	1.28675e+00
0.293920	2.746044	1.28842e+00
0.295001	2.787994	1.29594e+00
0.296452	2.842414	1.30623e+00
0.297577	2.873998	1.31858e+00
0.298655	2.890922	1.30209e+00
0.299923	2.911529	1.28271e+00
0.300891	2.923389	1.25936e+00
0.301327	2.932141	1.24750e+00
0.302401	2.957134	1.22671e+00
0.303162	3.034960	1.18823e+00
0.303926	2.994441	1.19719e+00
0.304396	2.996262	1.19211e+00
0.306738	2.974640	1.08541e+00
0.307527	2.989856	1.10946e+00
0.308320	2.976883	1.05619e+00
0.308594	2.975714	1.04667e+00
0.309118	2.964552	1.03158e+00
0.313408	2.904674	9.97401e-01
0.313988	2.870872	1.00167e+00
0.314225	2.858718	1.00827e+00
0.318374	2.828300	1.05988e+00
0.319868	2.851624	1.06551e+00
0.320726	2.882135	1.11425e+00
0.321773	2.905259	1.13666e+00
0.327011	2.998432	1.25001e+00
0.327760	3.022065	1.26095e+00
0.328794	3.049817	1.26519e+00
0.329566	3.087690	1.26119e+00
0.329694	3.093418	1.25942e+00
0.332421	3.137218	1.25370e+00
0.334265	3.220007	1.22917e+00
0.335109	3.237486	1.22601e+00
0.336129	3.255904	1.21560e+00
0.338014	3.293331	1.19550e+00
0.339920	3.329235	1.17639e+00
0.342795	3.411943	1.13884e+00
0.343798	3.438629	1.12135e+00
0.345769	3.470877	1.09423e+00
0.345770	3.470898	1.09421e+00
0.347780	3.519229	1.05477e+00
0.348795	3.540163	1.02415e+00
0.349783	3.560706	9.94948e-01
0.352855	3.581139	9.18136e-01
0.353890	3.616333	8.85720e-01
0.353957	3.617158	8.84006e-01
0.355981	3.637408	8.11027e-01
0.356065	3.637564	8.08150e-01
0.360236	3.643792	6.46282e-01
0.360358	3.642570	6.41841e-01
0.361447	3.643023	6.65937e-01
0.362543	3.627069	5.96405e-01
0.364755	3.608249	5.25309e-01
0.366995	3.591262	4.58337e-01
0.369058	3.578259	4.10182e-01
0.371332	3.533544	3.60445e-01
0.375053	3.490973	2.75312e-01
0.375965	3.481782	2.66417e-01
0.377421	3.454290	2.53145e-01
0.378324	3.436599	2.35673e-01
0.378616	3.431034	2.30011e-01
0.380714	3.392932	2.17894e-01
0.382247	3.379039	2.08108e-01
0.384707	3.356388	1.83060e-01
0.385585	3.348565	1.77728e-01
0.388456	3.324066	1.60249e-01
0.390582	3.305768	1.39711e-01
0.390997	3.302092	1.35708e-01
0.394871	3.268551	1.10367e-01
0.395711	3.261354	1.05150e-01
0.398822	3.234560	8.58202e-02
0.400976	3.216317	7.75942e-02
0.405017	3.170108	6.23874e-02
0.405587	3.166274	6.01843e-02
0.411937	3.124194	4.80768e-02
0.417646	3.078954	3.73404e-02
0.419828	3.055444	3.33034e-02
0.422032	3.031785	3.17730e-02
0.445423	2.935143	1.43251e-02
0.451537	2.917165	9.86742e-03
0.462513	2.885845	7.20802e-03
0.480966	2.835710	2.89157e-03
0.488428	2.816754	1.19803e-03
0.500953	2.785934	1.16866e-03
0.536634	2.735874	1.07752e-03
0.583380	2.683572	9.69461e-04
0.586690	2.680871	9.62069e-04
0.645894	2.636860	1.04428e-03
0.727782	2.598466	1.13456e-03
0.827725	2.567544	1.22036e-03
0.837312	2.565495	1.22736e-03
0.959488	2.542853	1.03352e-03
1.152048	2.522077	8.05535e-04
1.163124	2.521348	7.94543e-04
1.424275	2.507413	7.82320e-04
1.904002	2.496505	7.66984e-04
