# Refractive index of bismuth vanadate (BiVO4) extracted from Malerba et al “Absor
# ption Coefficient of Bulk and Thin Film Cu2O.” Solar Energy Materials and Solar 
# Cells 95, no. 10 (2011): 2848–54.
#
# First column:		Wavelength (in um)
# Second column:	refractive index
# Third column:		extinction coefficient
#
0.062118	0.453648	3.74419e-01
0.062183	0.455569	3.72840e-01
0.062375	0.447027	3.50304e-01
0.063303	0.380315	2.46324e-01
0.063559	0.382016	2.45183e-01
0.063572	0.381056	2.45799e-01
0.063964	0.340986	2.51558e-01
0.064374	0.326891	2.37497e-01
0.064637	0.303886	2.38432e-01
0.064789	0.292311	2.41875e-01
0.064883	0.277015	2.51330e-01
0.065923	0.130085	3.86000e-01
0.066176	0.113485	4.01690e-01
0.066212	0.112847	4.04461e-01
0.066618	0.096620	4.78821e-01
0.067066	0.100246	5.52609e-01
0.067435	0.124533	6.09921e-01
0.067521	0.131727	6.12911e-01
0.067776	0.144852	6.20180e-01
0.068843	0.179549	7.08252e-01
0.069161	0.184537	7.31013e-01
0.069176	0.184982	7.32100e-01
0.069656	0.196586	7.75368e-01
0.070142	0.207203	8.17685e-01
0.070507	0.216704	8.40016e-01
0.070635	0.221227	8.47998e-01
0.070799	0.225234	8.64445e-01
0.072071	0.289714	9.90315e-01
0.072417	0.307431	1.01311e+00
0.072429	0.308177	1.01334e+00
0.072700	0.342134	1.02423e+00
0.073004	0.389902	1.04122e+00
0.073198	0.430085	1.05696e+00
0.073792	0.557649	1.11507e+00
0.073792	0.557853	1.11512e+00
0.074103	0.554929	1.09569e+00
0.075067	0.555731	1.01689e+00
0.075502	0.579873	9.93647e-01
0.076073	0.589014	1.00261e+00
0.076654	0.593029	1.02003e+00
0.076908	0.593075	1.03045e+00
0.077243	0.613819	1.05579e+00
0.077292	0.618435	1.05653e+00
0.077600	0.656811	1.06727e+00
0.078209	0.677615	1.05630e+00
0.078912	0.696739	1.04121e+00
0.079275	0.699984	1.04344e+00
0.080203	0.694724	1.06921e+00
0.081018	0.787031	1.15460e+00
0.081088	0.787793	1.15709e+00
0.081404	0.801317	1.15334e+00
0.081527	0.815638	1.15831e+00
0.082357	0.939365	1.15183e+00
0.082748	0.967581	1.12821e+00
0.083158	0.981695	1.09021e+00
0.083258	0.987473	1.07856e+00
0.083561	0.989884	1.02860e+00
0.083683	0.982491	1.01731e+00
0.084262	0.986703	1.00149e+00
0.084975	0.976169	9.98251e-01
0.085723	0.979689	9.80227e-01
0.086748	1.044766	1.01756e+00
0.086873	1.074804	1.00063e+00
0.086970	1.083784	1.00111e+00
0.088059	1.067087	8.72464e-01
0.088646	1.096268	8.46008e-01
0.088662	1.096624	8.44717e-01
0.089121	1.096936	8.15730e-01
0.089223	1.091302	8.13591e-01
0.089710	1.052375	7.87859e-01
0.090548	0.944110	6.89979e-01
0.091373	0.932978	7.24057e-01
0.092118	0.915877	7.60952e-01
0.092415	0.924307	7.63142e-01
0.092917	0.932368	7.59550e-01
0.092970	0.931219	7.56728e-01
0.093839	0.919852	7.04184e-01
0.094984	0.825630	6.95520e-01
0.095592	0.787695	7.08419e-01
0.096313	0.746883	7.29431e-01
0.096440	0.742881	7.30254e-01
0.096854	0.747569	7.50673e-01
0.096987	0.748192	7.58011e-01
0.097941	0.744937	8.01014e-01
0.099657	0.793634	9.17885e-01
0.099893	0.809211	9.22172e-01
0.100237	0.809602	9.09003e-01
0.101862	0.808867	8.50821e-01
0.102486	0.808593	8.27935e-01
0.103419	0.810075	7.94947e-01
0.104404	0.767040	8.05078e-01
0.105500	0.742072	7.93298e-01
0.105783	0.731334	7.94925e-01
0.106620	0.686046	7.88516e-01
0.106647	0.684087	7.88855e-01
0.107737	0.632674	8.25263e-01
0.108434	0.631101	8.71077e-01
0.109626	0.615201	9.34167e-01
0.110328	0.625897	9.41310e-01
0.111661	0.628400	9.80430e-01
0.112501	0.625841	1.00130e+00
0.113764	0.600998	1.01875e+00
0.114521	0.588839	1.02541e+00
0.116106	0.534514	1.09710e+00
0.116901	0.526672	1.14017e+00
0.118693	0.548353	1.24666e+00
0.119992	0.569884	1.30262e+00
0.120191	0.573768	1.30928e+00
0.120798	0.592381	1.33235e+00
0.121443	0.611878	1.35642e+00
0.121641	0.619728	1.35929e+00
0.122424	0.650561	1.37097e+00
0.122929	0.653809	1.37082e+00
0.126820	0.668039	1.39014e+00
0.127210	0.664444	1.38962e+00
0.127906	0.653174	1.39910e+00
0.128156	0.654928	1.40518e+00
0.131710	0.646786	1.55989e+00
0.132088	0.643615	1.57406e+00
0.132754	0.644460	1.58330e+00
0.133256	0.651361	1.59272e+00
0.137043	0.665245	1.74695e+00
0.137306	0.666906	1.75518e+00
0.138099	0.678376	1.78210e+00
0.138248	0.680942	1.78726e+00
0.139063	0.686902	1.83546e+00
0.139122	0.687830	1.83909e+00
0.139767	0.700755	1.86995e+00
0.140450	0.721863	1.90470e+00
0.141652	0.765143	1.94357e+00
0.142714	0.830309	1.98886e+00
0.144090	0.892228	2.03877e+00
0.144206	0.905102	2.04636e+00
0.144613	0.927494	2.06304e+00
0.144779	0.933429	2.06842e+00
0.145069	0.946222	2.07225e+00
0.146184	0.986478	2.08345e+00
0.147104	1.011542	2.10788e+00
0.150943	1.042331	2.17206e+00
0.150951	1.042442	2.17209e+00
0.152214	1.110138	2.20229e+00
0.152612	1.134795	2.21387e+00
0.152937	1.158166	2.22516e+00
0.153780	1.216036	2.25385e+00
0.155494	1.277988	2.28399e+00
0.156224	1.298642	2.29399e+00
0.157655	1.334677	2.31913e+00
0.157697	1.335829	2.31972e+00
0.158268	1.355704	2.33020e+00
0.158618	1.375846	2.34135e+00
0.159769	1.430124	2.37166e+00
0.160168	1.445643	2.38036e+00
0.161184	1.493399	2.38757e+00
0.161600	1.508504	2.38805e+00
0.162941	1.550907	2.39852e+00
0.163297	1.563638	2.40242e+00
0.163647	1.578122	2.40763e+00
0.163744	1.582622	2.40833e+00
0.164360	1.605817	2.40952e+00
0.165421	1.664048	2.42481e+00
0.166176	1.721400	2.44782e+00
0.166806	1.772584	2.47041e+00
0.166839	1.787536	2.48044e+00
0.167507	1.814189	2.48541e+00
0.167980	1.842416	2.49606e+00
0.168451	1.884886	2.48695e+00
0.169260	1.953886	2.47028e+00
0.169405	1.965572	2.46820e+00
0.170897	2.021538	2.39680e+00
0.171102	2.015604	2.40343e+00
0.171322	2.010219	2.41130e+00
0.171712	2.044317	2.37358e+00
0.172384	2.065745	2.35317e+00
0.175112	2.116829	2.31278e+00
0.175540	2.130122	2.31158e+00
0.176334	2.154227	2.30924e+00
0.176490	2.161149	2.30643e+00
0.176926	2.187701	2.30568e+00
0.178422	2.235340	2.26329e+00
0.180357	2.309438	2.19896e+00
0.181294	2.331957	2.18163e+00
0.181557	2.337548	2.17610e+00
0.183067	2.356407	2.15691e+00
0.185720	2.401728	2.11321e+00
0.186712	2.420572	2.09975e+00
0.187719	2.448463	2.07879e+00
0.189352	2.482977	2.03329e+00
0.192911	2.542786	1.95107e+00
0.194025	2.560995	1.92555e+00
0.195115	2.577623	1.90194e+00
0.195282	2.579557	1.89750e+00
0.196720	2.607710	1.85162e+00
0.197738	2.621771	1.81096e+00
0.199012	2.607177	1.78287e+00
0.200035	2.586883	1.74748e+00
0.200346	2.580686	1.73674e+00
0.203068	2.579218	1.72105e+00
0.205511	2.586426	1.72001e+00
0.206791	2.597807	1.73102e+00
0.208332	2.600423	1.72774e+00
0.209913	2.610070	1.71981e+00
0.216013	2.624529	1.65668e+00
0.217739	2.641323	1.65959e+00
0.218869	2.654152	1.66021e+00
0.221067	2.687876	1.65574e+00
0.222153	2.717455	1.64559e+00
0.222798	2.726308	1.64488e+00
0.228468	2.766015	1.57865e+00
0.229338	2.776967	1.56610e+00
0.230024	2.783033	1.55774e+00
0.233099	2.815868	1.53185e+00
0.235460	2.834535	1.50139e+00
0.236074	2.839074	1.49299e+00
0.237683	2.848521	1.47256e+00
0.243711	2.881730	1.39419e+00
0.243971	2.883265	1.39087e+00
0.245698	2.890337	1.36236e+00
0.248019	2.897621	1.32582e+00
0.248398	2.897725	1.31748e+00
0.251061	2.876488	1.26916e+00
0.252593	2.864547	1.24133e+00
0.253904	2.858057	1.22581e+00
0.257381	2.805259	1.20024e+00
0.262649	2.759042	1.23710e+00
0.267179	2.765873	1.24789e+00
0.269871	2.791751	1.30181e+00
0.270024	2.800666	1.32069e+00
0.271044	2.807813	1.33489e+00
0.272958	2.829471	1.37827e+00
0.273286	2.840801	1.38186e+00
0.276717	2.925471	1.35536e+00
0.278207	2.959935	1.34527e+00
0.279282	2.990095	1.33573e+00
0.279492	2.996074	1.33384e+00
0.281894	3.042954	1.26483e+00
0.282130	3.041735	1.26062e+00
0.283169	3.034992	1.23859e+00
0.284547	3.029472	1.21743e+00
0.286585	3.021841	1.18699e+00
0.287954	3.017852	1.16628e+00
0.290351	3.007666	1.12083e+00
0.295268	3.018134	1.11094e+00
0.306465	3.035465	1.07488e+00
0.308320	3.048810	1.06548e+00
0.312674	3.078777	1.04206e+00
0.316701	3.096857	9.93857e-01
0.319499	3.107100	9.62038e-01
0.321589	3.102266	9.42512e-01
0.325592	3.088830	8.89759e-01
0.328666	3.080622	8.54926e-01
0.330477	3.065611	8.37416e-01
0.331393	3.054610	8.15692e-01
0.334397	3.038336	8.17320e-01
0.337950	3.042741	8.12963e-01
0.355008	3.060883	7.86379e-01
0.358095	3.053590	7.40016e-01
0.358676	3.047096	7.32587e-01
0.362543	3.005617	6.88587e-01
0.364261	2.987064	6.67418e-01
0.366545	2.964543	6.47927e-01
0.369867	2.939420	6.53350e-01
0.375965	2.851695	6.73236e-01
0.376804	2.818527	6.81130e-01
0.378959	2.807443	6.83745e-01
0.384356	2.794812	7.47417e-01
0.384707	2.796292	7.50903e-01
0.386781	2.804552	7.69543e-01
0.387449	2.811258	7.90014e-01
0.393571	2.836082	8.44213e-01
0.404606	2.867875	8.97183e-01
0.407760	2.889700	9.51852e-01
0.411449	2.906691	9.88050e-01
0.412016	2.901100	9.69260e-01
0.415452	2.929820	1.03977e+00
0.418267	2.945364	1.07313e+00
0.419828	2.971963	1.08465e+00
0.422498	3.023606	1.12322e+00
0.425008	3.059013	1.12630e+00
0.425304	3.064930	1.12601e+00
0.425808	3.081098	1.14205e+00
0.429770	3.161994	1.14903e+00
0.431962	3.204626	1.15321e+00
0.438252	3.316130	1.14897e+00
0.441462	3.398624	1.13791e+00
0.441533	3.400954	1.13750e+00
0.443784	3.468408	1.10760e+00
0.445659	3.478310	1.09804e+00
0.447075	3.506440	1.08447e+00
0.448739	3.526508	1.07278e+00
0.452833	3.593142	1.03971e+00
0.454233	3.623132	1.02669e+00
0.455938	3.653474	9.90247e-01
0.456261	3.659248	9.83473e-01
0.458991	3.718712	9.24754e-01
0.459217	3.719110	9.21111e-01
0.460227	3.741111	9.84628e-01
0.461922	3.724543	8.79732e-01
0.462006	3.726956	8.73797e-01
0.462513	3.743323	8.44849e-01
0.463000	3.744025	8.20631e-01
0.463798	3.749831	8.01497e-01
0.464294	3.755273	7.98124e-01
0.466694	3.775079	7.83369e-01
0.470284	3.781701	6.39546e-01
0.472087	3.791673	5.98410e-01
0.475930	3.764603	5.19008e-01
0.478652	3.744469	4.46200e-01
0.479749	3.734480	3.95916e-01
0.481959	3.721365	3.51706e-01
0.483630	3.710537	3.02926e-01
0.484470	3.705841	2.84975e-01
0.485651	3.700296	2.72262e-01
0.488428	3.686387	2.25122e-01
0.488767	3.684719	2.19061e-01
0.491007	3.651769	1.80120e-01
0.493581	3.614232	1.30577e-01
0.494785	3.597400	1.23113e-01
0.496542	3.569915	1.12262e-01
0.497782	3.550373	9.96624e-02
0.497964	3.547519	9.84960e-02
0.503044	3.574642	6.36753e-02
0.504929	3.520930	5.19843e-02
0.507278	3.453592	4.64552e-02
0.515962	3.367941	2.33559e-02
0.522584	3.291452	5.51003e-03
0.522674	3.290421	5.50809e-03
0.529562	3.264741	5.27055e-03
0.537965	3.224648	4.99907e-03
0.563511	3.125927	4.16363e-03
0.603835	3.031856	2.85263e-03
0.626664	2.993988	2.14623e-03
0.660040	2.942581	1.82994e-03
0.661326	2.941209	1.81787e-03
0.682460	2.919307	1.82726e-03
0.708340	2.894773	1.83785e-03
0.718242	2.885802	1.79443e-03
0.762551	2.862023	1.60341e-03
0.764716	2.860927	1.60699e-03
0.959488	2.779297	1.87275e-03
0.965821	2.778752	1.87874e-03
1.016100	2.774660	1.65439e-03
1.023705	2.773505	1.62266e-03
1.441304	2.728393	1.87173e-03
1.461736	2.727390	1.88004e-03
1.572950	2.722385	1.66495e-03
1.598535	2.721492	1.61951e-03
