#REFERENCES:    Malerba et al. “Absorption Coefficient of Bulk and Thin Film Cu2O.” 
#               Solar Energy Materials and Solar Cells 95, no. 10 (2011): 2848–54. 
#               https://doi.org/10.1016/j.solmat.2011.05.047.
#DATA:
#  - type: tabulated nk
#    data: |
0.250	1.7740	1.53783E+00
0.255	1.7590	1.57772E+00
0.260	1.7560	1.64010E+00
0.265	1.7750	1.72078E+00
0.270	1.8240	1.81169E+00
0.275	1.9100	1.89951E+00
0.280	2.0320	1.96502E+00
0.285	2.1780	1.98831E+00
0.290	2.3210	1.95996E+00
0.295	2.4320	1.88929E+00
0.300	2.4980	1.80266E+00
0.305	2.5200	1.72664E+00
0.310	2.5170	1.67650E+00
0.315	2.5030	1.65717E+00
0.320	2.4940	1.66565E+00
0.325	2.4990	1.69633E+00
0.330	2.5260	1.74107E+00
0.335	2.5780	1.78958E+00
0.340	2.6560	1.83198E+00
0.345	2.7560	1.85755E+00
0.350	2.8700	1.85857E+00
0.355	2.9860	1.83088E+00
0.360	3.0950	1.77617E+00
0.365	3.1860	1.70063E+00
0.370	3.2550	1.61380E+00
0.375	3.3020	1.52371E+00
0.380	3.3310	1.43728E+00
0.385	3.3450	1.35815E+00
0.390	3.3500	1.28858E+00
0.395	3.3480	1.22840E+00
0.400	3.3430	1.17743E+00
0.405	3.3360	1.13445E+00
0.410	3.3300	1.09821E+00
0.415	3.3250	1.06801E+00
0.420	3.3210	1.04278E+00
0.425	3.3200	1.02239E+00
0.430	3.3210	1.00602E+00
0.435	3.3250	9.94520E-01
0.440	3.3320	9.89850E-01
0.445	3.3470	9.96840E-01
0.450	3.3850	1.01950E+00
0.452	3.4140	1.03231E+00
0.454	3.4570	1.04230E+00
0.456	3.5170	1.03890E+00
0.458	3.5840	1.00774E+00
0.460	3.6370	9.48820E-01
0.462	3.6640	8.77940E-01
0.464	3.6660	8.11960E-01
0.466	3.6540	7.58720E-01
0.468	3.6380	7.19520E-01
0.470	3.6220	6.92300E-01
0.472	3.6120	6.73830E-01
0.474	3.6110	6.59340E-01
0.476	3.6210	6.42420E-01
0.478	3.6370	6.14310E-01
0.480	3.6490	5.73340E-01
0.482	3.6510	5.24330E-01
0.484	3.6390	4.74810E-01
0.486	3.6190	4.08780E-01
0.488	3.5940	3.46780E-01
0.490	3.5680	2.90520E-01
0.492	3.5410	2.41300E-01
0.494	3.5150	1.99730E-01
0.496	3.4910	1.65730E-01
0.498	3.4680	1.38650E-01
0.500	3.4460	1.17490E-01
0.504	3.4060	8.85800E-02
0.508	3.3710	7.11200E-02
0.512	3.3400	5.98500E-02
0.516	3.3120	5.18900E-02
0.520	3.2860	4.58600E-02
0.524	3.2620	4.10900E-02
0.528	3.2410	3.72000E-02
0.532	3.2210	3.39600E-02
0.536	3.2020	3.12100E-02
0.540	3.1840	2.88300E-02
0.544	3.1680	2.67300E-02
0.548	3.1530	2.48400E-02
0.552	3.1380	2.31000E-02
0.556	3.1240	2.14800E-02
0.560	3.1110	1.99300E-02
0.564	3.0990	1.84300E-02
0.568	3.0870	1.69600E-02
0.572	3.0750	1.54800E-02
0.576	3.0650	1.39600E-02
0.580	3.0540	1.23600E-02
0.584	3.0440	1.06500E-02
0.588	3.0350	8.85000E-03
0.590	3.0300	7.94000E-03
0.592	3.0260	7.05000E-03
0.594	3.0210	6.18000E-03
0.596	3.0170	5.36000E-03
0.598	3.0130	4.57000E-03
0.600	3.0080	3.91000E-03
0.602	3.0040	3.36000E-03
0.603	3.0020	3.12000E-03
0.604	3.0000	2.88000E-03
0.606	2.9960	2.51000E-03
0.608	2.9920	2.24000E-03
0.610	2.9880	1.95000E-03
0.611	2.9870	1.82000E-03
0.612	2.9850	1.73000E-03
0.614	2.9810	1.56000E-03
0.616	2.9770	1.43000E-03
0.618	2.9740	1.30000E-03
0.620	2.9700	1.16000E-03
0.622	2.9670	1.03000E-03
0.624	2.9630	9.04400E-04
0.626	2.9600	7.56800E-04
0.627	2.9580	6.63700E-04
0.628	2.9570	5.35200E-04
0.629	2.9550	3.69200E-04
0.630	2.9530	3.48800E-04
0.632	2.9500	3.04400E-04
0.634	2.9470	2.52500E-04
0.636	2.9440	1.85400E-04
0.637	2.9420	1.37400E-04
0.638	2.9410	3.71300E-05
0.640	2.9380	0.00000E+00
0.650	2.9240	0.00000E+00
0.660	2.9100	0.00000E+00
0.670	2.8980	0.00000E+00
0.680	2.8860	0.00000E+00
0.690	2.8750	0.00000E+00
0.700	2.8650	0.00000E+00
0.710	2.8550	0.00000E+00
0.720	2.8460	0.00000E+00
0.740	2.8290	0.00000E+00
0.760	2.8140	0.00000E+00
0.780	2.8000	0.00000E+00
0.800	2.7870	0.00000E+00
0.820	2.7760	0.00000E+00
0.840	2.7650	0.00000E+00
0.860	2.7560	0.00000E+00
0.880	2.7470	0.00000E+00
0.900	2.7390	0.00000E+00
0.950	2.7210	0.00000E+00
1.000	2.7050	0.00000E+00
1.050	2.6920	0.00000E+00
1.100	2.6810	0.00000E+00
1.150	2.6720	0.00000E+00
1.200	2.6630	0.00000E+00
1.250	2.6550	0.00000E+00
1.300	2.6490	0.00000E+00
1.350	2.6430	0.00000E+00
1.400	2.6370	0.00000E+00
1.450	2.6320	0.00000E+00
1.500	2.6280	0.00000E+00
1.550	2.6240	0.00000E+00
1.600	2.6200	0.00000E+00
1.650	2.6170	0.00000E+00
1.700	2.6130	0.00000E+00
1.750	2.6100	0.00000E+00
1.800	2.6080	0.00000E+00
1.850	2.6050	0.00000E+00
1.900	2.6030	0.00000E+00
1.950	2.6010	0.00000E+00
2.000	2.5990	0.00000E+00
2.050	2.5970	0.00000E+00
2.100	2.5950	0.00000E+00
2.150	2.5930	0.00000E+00
2.200	2.5920	0.00000E+00
2.250	2.5900	0.00000E+00
2.300	2.5890	0.00000E+00
2.350	2.5870	0.00000E+00
2.400	2.5860	0.00000E+00
2.450	2.5850	0.00000E+00
2.500	2.5840	0.00000E+00
