# Refractive index of calcium carbonate (MgO) extrated from Palik's Handbook of Op
# tical Constant (vol. 2) 
#
# First column:		Wavelength (in um)
# Second column:	refractive index
# Third column:		extinction coefficient
#
0.016530	0.951000	7.00000e-02
0.016750	0.952000	7.00000e-02
0.016980	0.954000	6.90000e-02
0.017220	0.954000	6.90000e-02
0.017710	0.952000	7.40000e-02
0.018230	0.952000	7.70000e-02
0.018790	0.958000	7.60000e-02
0.019070	0.962000	7.30000e-02
0.019370	0.964000	6.40000e-02
0.019680	0.965000	6.30000e-02
0.020000	0.960000	6.40000e-02
0.020330	0.950000	6.70000e-02
0.020660	0.938000	7.10000e-02
0.021010	0.925000	8.10000e-02
0.021380	0.926000	1.13000e-01
0.021750	0.954000	1.17000e-01
0.022140	0.964000	1.05000e-01
0.022540	0.964000	1.05000e-01
0.022750	0.965000	1.04000e-01
0.022960	0.966000	1.06000e-01
0.023390	0.975000	1.09000e-01
0.023840	0.985000	9.40000e-02
0.024070	0.981000	8.20000e-02
0.024310	0.972000	7.90000e-02
0.024800	0.963000	8.40000e-02
0.025300	0.960000	8.30000e-02
0.025830	0.955000	8.50000e-02
0.026380	0.950000	8.40000e-02
0.026950	0.943000	9.00000e-02
0.027550	0.940000	8.80000e-02
0.028180	0.930000	9.40000e-02
0.028830	0.926000	1.03000e-01
0.029520	0.924000	1.06000e-01
0.030240	0.918000	1.13000e-01
0.031000	0.915000	1.23000e-01
0.031790	0.916000	1.29000e-01
0.032630	0.915000	1.33000e-01
0.033510	0.912000	1.38000e-01
0.034440	0.909000	1.40000e-01
0.034930	0.903000	1.43000e-01
0.035420	0.898000	1.53000e-01
0.036470	0.902000	1.65000e-01
0.037570	0.908000	1.69000e-01
0.038750	0.913000	1.66000e-01
0.039360	0.913000	1.60000e-01
0.039990	0.909000	1.53000e-01
0.040650	0.901000	1.45000e-01
0.041330	0.887000	1.42000e-01
0.042750	0.862000	1.42000e-01
0.044280	0.830000	1.42000e-01
0.045090	0.806000	1.46000e-01
0.045920	0.781000	1.55000e-01
0.046790	0.754000	1.68000e-01
0.047690	0.724000	1.88000e-01
0.048620	0.694000	2.21000e-01
0.049590	0.677000	2.64000e-01
0.049790	0.675000	2.75000e-01
0.049990	0.675000	2.87000e-01
0.050610	0.689000	3.03000e-01
0.051020	0.692000	3.04000e-01
0.051450	0.684000	3.09000e-01
0.051660	0.680000	3.13000e-01
0.051880	0.678000	3.19000e-01
0.052310	0.677000	3.25000e-01
0.052760	0.669000	3.28000e-01
0.053210	0.658000	3.34000e-01
0.053910	0.636000	3.48000e-01
0.054620	0.612000	3.65000e-01
0.055100	0.589000	3.82000e-01
0.055850	0.553000	4.23000e-01
0.056360	0.531000	4.64000e-01
0.056870	0.522000	5.11000e-01
0.057400	0.519000	5.07000e-01
0.057670	0.522000	5.86000e-01
0.057940	0.526000	6.14000e-01
0.058210	0.535000	6.42000e-01
0.058480	0.550000	6.69000e-01
0.058760	0.568000	6.93000e-01
0.059040	0.592000	7.16000e-01
0.059320	0.624000	7.23000e-01
0.059610	0.645000	7.20000e-01
0.059900	0.659000	7.23000e-01
0.060190	0.676000	7.10000e-01
0.060480	0.673000	7.04000e-01
0.060780	0.669000	7.04000e-01
0.061080	0.661000	7.07000e-01
0.061380	0.651000	7.16000e-01
0.061980	0.632000	7.52000e-01
0.062300	0.625000	7.86000e-01
0.062620	0.635000	8.20000e-01
0.062940	0.652000	8.47000e-01
0.063260	0.670000	8.71000e-01
0.063580	0.691000	8.92000e-01
0.063910	0.714000	8.11000e-01
0.064240	0.743000	9.30000e-01
0.064580	0.776000	9.18000e-01
0.064910	0.780000	9.29000e-01
0.065080	0.792000	9.29000e-01
0.065250	0.798000	9.29000e-01
0.065600	0.807000	9.35000e-01
0.065950	0.817000	9.44000e-01
0.066300	0.828000	9.55000e-01
0.066860	0.842000	9.69000e-01
0.067020	0.859000	9.82000e-01
0.067570	0.887000	9.96000e-01
0.068120	0.915000	1.00700e+00
0.068500	0.931000	1.01400e+00
0.068880	0.947000	1.02300e+00
0.069260	0.964000	1.03400e+00
0.069650	0.984000	1.04900e+00
0.070050	1.009000	1.06400e+00
0.070250	1.025000	1.07400e+00
0.070450	1.046000	1.08200e+00
0.070850	1.087000	1.07400e+00
0.071260	1.118000	1.08100e+00
0.071670	1.166000	1.07400e+00
0.072080	1.203000	1.04300e+00
0.072510	1.224000	1.02300e+00
0.072930	1.241000	1.00100e+00
0.073150	1.248000	1.00100e+00
0.073360	1.265000	1.00000e+00
0.073800	1.301000	9.76000e-01
0.074240	1.333000	9.41000e-01
0.074690	1.341000	8.83000e-01
0.075140	1.344000	8.62000e-01
0.075600	1.346000	8.10000e-01
0.076060	1.337000	7.74000e-01
0.076530	1.301000	7.14000e-01
0.077010	1.247000	7.05000e-01
0.077490	1.214000	7.24000e-01
0.077980	1.195000	7.27000e-01
0.078470	1.173000	7.36000e-01
0.078970	1.160000	7.60000e-01
0.079890	1.149000	7.73000e-01
0.080510	1.141000	7.88000e-01
0.081040	1.135000	7.98000e-01
0.081570	1.131000	8.19000e-01
0.082110	1.139000	8.35000e-01
0.082660	1.147000	8.41000e-01
0.083210	1.149000	8.43000e-01
0.083770	1.150000	8.50000e-01
0.084340	1.149000	8.47000e-01
0.084920	1.137000	8.51000e-01
0.085510	1.120000	8.64000e-01
0.086100	1.115000	8.83000e-01
0.086700	1.110000	9.03000e-01
0.087310	1.106000	9.19000e-01
0.087930	1.094000	9.29000e-01
0.088560	1.065000	9.47000e-01
0.089200	1.023000	9.94000e-01
0.089840	0.990000	1.08700e+00
0.090170	0.984000	1.13300e+00
0.090500	0.980000	1.21800e+00
0.091160	1.054000	1.35000e+00
0.091500	1.111000	1.41800e+00
0.091840	1.191000	1.47100e+00
0.092180	1.283000	1.49900e+00
0.092530	1.374000	1.50700e+00
0.092870	1.463000	1.50300e+00
0.093220	1.549000	1.47900e+00
0.093570	1.632000	1.44600e+00
0.093930	1.702000	1.38000e+00
0.094280	1.744000	1.31200e+00
0.094640	1.768000	1.24800e+00
0.095010	1.779000	1.19300e+00
0.095370	1.786000	1.14700e+00
0.095740	1.789000	1.10300e+00
0.096110	1.788000	1.06500e+00
0.096860	1.779000	9.97000e-01
0.098190	1.723000	8.58000e-01
0.098400	1.745000	8.94000e-01
0.100000	1.694000	8.24000e-01
0.102500	1.603000	7.70000e-01
0.103300	1.565000	7.65000e-01
0.104200	1.520000	7.67000e-01
0.105100	1.473000	7.87000e-01
0.106400	1.397000	8.39000e-01
0.106900	1.370000	8.90000e-01
0.107800	1.371000	1.00000e+00
0.108800	1.409000	1.08100e+00
0.109700	1.468000	1.16100e+00
0.110700	1.555000	1.21000e+00
0.111200	1.601000	1.22000e+00
0.111700	1.646000	1.23000e+00
0.112700	1.735000	1.22800e+00
0.113700	1.814000	1.20200e+00
0.114800	1.877000	1.16600e+00
0.118100	1.989000	1.04100e+00
0.121800	2.045000	9.21000e-01
0.124000	2.061000	8.67000e-01
0.126500	2.074000	8.19000e-01
0.127800	2.079000	7.98000e-01
0.130500	2.091000	7.61000e-01
0.133300	2.103000	7.28000e-01
0.137800	2.130000	6.79000e-01
0.140900	2.147000	6.42000e-01
0.145900	2.160000	5.87000e-01
0.151200	2.171000	5.45000e-01
0.153100	2.168000	5.32000e-01
0.155000	2.154000	5.30000e-01
0.156000	2.145000	5.39000e-01
0.156900	2.137000	5.58000e-01
0.157900	2.127000	5.89000e-01
0.158300	2.126000	6.11000e-01
0.159000	2.132000	6.51000e-01
0.160000	2.180000	7.31000e-01
0.161000	2.270000	8.13000e-01
0.161400	2.327000	8.51000e-01
0.161900	2.389000	8.85000e-01
0.162300	2.498000	9.36000e-01
0.162500	2.574000	9.49000e-01
0.162700	2.685000	9.44000e-01
0.162900	2.753000	9.12000e-01
0.163100	2.839000	8.66000e-01
0.163400	2.922000	8.00000e-01
0.163600	2.994000	7.11000e-01
0.163800	3.048000	6.00000e-01
0.164000	3.061000	4.74000e-01
0.164200	3.035000	3.60000e-01
0.164400	2.999000	2.72000e-01
0.164700	2.944000	2.04000e-01
0.164900	2.892000	1.49000e-01
0.165300	2.793000	7.60000e-02
0.165800	2.701000	3.90000e-02
0.166400	2.603000	1.80000e-02
0.167500	2.494000	2.00000e-03
0.168700	2.419000	1.37867e-03
0.169800	2.363000	7.57333e-04
0.170300	2.346000	1.36000e-04
0.171000	2.319000	1.06000e-04
0.172200	2.281000	7.60000e-05
0.172600	2.269000	6.87000e-05
0.173400	2.248000	6.20000e-05
0.173700	2.241000	5.53000e-05
0.174600	2.220000	4.86000e-05
0.175700	2.198000	4.19000e-05
0.175900	2.196000	3.94500e-05
0.177100	2.176000	3.70000e-05
0.179700	2.141000	3.28000e-05
0.180000	2.138000	2.86000e-05
0.182300	2.110000	2.43000e-05
0.185100	2.084000	2.00000e-05
0.187900	2.060000	1.69500e-05
0.190700	2.039000	1.39000e-05
0.193700	2.020000	1.25000e-05
0.200000	1.986000	1.11000e-05
0.206600	1.958000	1.00000e-05
0.213800	1.933000	8.50000e-06
0.221400	1.911000	7.00000e-06
0.225400	1.901000	6.00000e-06
0.229600	1.892000	5.00000e-06
0.238400	1.874000	3.70000e-06
0.246300	1.865000	3.20000e-06
0.248000	1.858000	3.10000e-06
0.261000	1.840000	2.77857e-06
0.275500	1.824000	2.45714e-06
0.291700	1.810000	2.13571e-06
0.310000	1.798000	1.81429e-06
0.330600	1.785000	1.49286e-06
0.351100	1.776800	1.17143e-06
0.355600	1.775500	8.50000e-07
0.360900	1.773200	5.75000e-07
0.361170	1.773180	5.65000e-07
0.365020	1.771860	4.90000e-07
0.382100	1.766800	2.75000e-07
0.386700	1.765500	2.45000e-07
0.393400	1.763800	2.20000e-07
0.404700	1.761040	1.95000e-07
0.431000	1.755700	1.70000e-07
0.435800	1.754710	1.65000e-07
0.457900	1.751200	1.45000e-07
0.478000	1.748300	1.15000e-07
0.486100	1.747110	1.00000e-07
0.488000	1.746900	9.75000e-08
0.500000	1.745400	8.25000e-08
0.502400	1.745300	8.00000e-08
0.508500	1.744460	7.00000e-08
0.514500	1.743900	6.55000e-08
0.546100	1.740770	0.00000e+00
0.589300	1.737370	0.00000e+00
0.632800	1.734600	0.00000e+00
0.643800	1.734000	0.00000e+00
0.656300	1.733350	0.00000e+00
0.667800	1.732770	0.00000e+00
0.690700	1.731910	0.00000e+00
0.706500	1.731010	0.00000e+00
0.767900	1.728720	0.00000e+00
1.000000	1.722900	0.00000e+00
1.013980	1.722590	0.00000e+00
1.060000	1.721700	0.00000e+00
1.128660	1.720590	0.00000e+00
1.319000	1.717700	0.00000e+00
1.367280	1.717150	0.00000e+00
1.500000	1.715300	0.00000e+00
1.529520	1.714960	0.00000e+00
1.550000	1.714700	0.00000e+00
1.693200	1.712810	0.00000e+00
1.709200	1.709200	0.00000e+00
1.813070	1.711080	0.00000e+00
1.970090	1.708850	0.00000e+00
2.000000	1.708500	0.00000e+00
2.249290	1.704700	0.00000e+00
2.325420	1.703500	0.00000e+00
2.500000	1.700700	0.00000e+00
2.700000	1.697300	0.00000e+00
2.800000	1.695400	0.00000e+00
3.000000	1.691500	0.00000e+00
3.303300	1.685260	0.00000e+00
3.333000	1.684600	0.00000e+00
3.448000	1.682000	0.00000e+00
3.500000	1.680600	0.00000e+00
3.507800	1.680550	0.00000e+00
3.571000	1.679100	0.00000e+00
3.704000	1.675800	0.00000e+00
3.800000	1.673400	2.00000e-08
3.846000	1.672200	2.85000e-08
4.000000	1.667900	3.70000e-08
4.167000	1.663400	7.40000e-08
4.258000	1.660390	1.00000e-07
4.348000	1.658100	1.50000e-07
4.500000	1.653300	2.50000e-07
4.545000	1.652000	2.90000e-07
4.762000	1.645000	5.80000e-07
5.000000	1.637300	1.20000e-06
5.128000	1.632800	1.63000e-06
5.208000	1.629900	2.00000e-06
5.263000	1.627800	2.30000e-06
5.319000	1.625600	2.70000e-06
5.376000	1.623300	3.10000e-06
5.435000	1.621000	3.50000e-06
5.495000	1.618600	4.00000e-06
5.555000	1.616100	4.60000e-06
5.618000	1.613500	5.30000e-06
5.682000	1.610800	6.10000e-06
5.747000	1.608000	7.10000e-06
5.814000	1.605100	8.10000e-06
5.882000	1.602100	9.00000e-06
5.952000	1.598900	1.10000e-05
6.024000	1.595700	1.20000e-05
6.098000	1.592200	1.40000e-05
6.172000	1.588700	1.60000e-05
6.250000	1.584900	1.83000e-05
6.329000	1.581100	2.20000e-05
6.410000	1.577000	2.50000e-05
6.494000	1.572700	2.90000e-05
6.579000	1.568300	3.30000e-05
6.667000	1.563600	4.60000e-05
6.757000	1.551000	5.38000e-05
6.849000	1.553600	5.98000e-05
6.944000	1.548000	7.00000e-05
7.042000	1.543000	7.89000e-05
7.143000	1.537000	8.59000e-05
7.246000	1.530000	9.30000e-05
7.352000	1.524000	1.03000e-04
7.463000	1.517000	1.15000e-04
7.576000	1.509000	1.31000e-04
7.692000	1.502000	1.54000e-04
7.812000	1.493000	1.84000e-04
7.936000	1.485000	2.11000e-04
8.065000	1.475000	2.47000e-04
8.197000	1.465000	2.73000e-04
8.333000	1.455000	3.09000e-04
8.475000	1.443000	3.26000e-04
8.621000	1.431000	3.52000e-04
8.772000	1.418000	4.14000e-04
8.929000	1.404000	5.76000e-04
9.091000	1.389000	6.27000e-04
9.259000	1.373000	8.47000e-04
9.434000	1.355000	1.07000e-03
9.524000	1.346000	1.33000e-03
9.615000	1.336000	1.58000e-03
9.709000	1.326000	1.92000e-03
9.804000	1.315000	2.44000e-03
9.901000	1.304000	3.02000e-03
10.000000	1.292000	3.90000e-03
10.100000	1.280000	4.70000e-03
10.200000	1.267000	5.13000e-03
10.310000	1.253000	4.29000e-03
10.420000	1.239000	3.55000e-03
10.530000	1.224000	3.40000e-03
10.640000	1.209000	3.70000e-03
10.750000	1.191000	4.58000e-03
10.870000	1.174000	5.91000e-03
10.990000	1.155000	7.80000e-03
11.110000	1.135000	1.02000e-02
11.240000	1.114000	1.37000e-02
11.360000	1.091000	1.62000e-02
11.490000	1.067000	1.96000e-02
11.630000	1.041000	2.23000e-02
11.700000	1.027000	2.29000e-02
11.760000	1.013000	2.27000e-02
11.900000	0.982000	2.05000e-02
12.050000	0.949000	1.71000e-02
12.200000	0.913000	1.47000e-02
12.270000	0.893000	1.43000e-02
12.350000	0.873000	1.46000e-02
12.500000	0.829000	1.67000e-02
12.660000	0.780000	2.36000e-02
12.820000	0.724000	2.95000e-02
12.990000	0.660000	3.46000e-02
13.330000	0.503000	4.75000e-02
13.510000	0.393000	9.13000e-02
13.700000	0.267000	1.72000e-01
13.890000	0.156000	3.17000e-01
14.080000	0.139000	4.78000e-01
14.290000	0.132000	5.95000e-01
14.490000	0.134000	6.92000e-01
14.710000	0.136000	7.87000e-01
14.930000	0.143000	8.77000e-01
15.150000	0.154000	9.55000e-01
15.380000	0.155000	1.03000e+00
15.630000	0.151000	1.09000e+00
15.870000	0.135000	1.17000e+00
16.130000	0.116000	1.26000e+00
16.390000	0.108000	1.35000e+00
16.670000	0.098000	1.45000e+00
16.950000	0.086000	1.56000e+00
17.240000	0.087000	1.67000e+00
17.540000	0.086000	1.78000e+00
17.860000	0.088000	1.90000e+00
18.180000	0.089000	2.03000e+00
18.520000	0.091000	2.16000e+00
18.870000	0.093000	2.31000e+00
19.230000	0.097000	2.47000e+00
19.610000	0.102000	2.64000e+00
20.000000	0.109000	2.84000e+00
20.410000	0.118000	3.06000e+00
20.830000	0.131000	3.31000e+00
21.280000	0.148000	3.60000e+00
21.740000	0.170000	3.95000e+00
22.220000	0.207000	4.39000e+00
22.730000	0.261000	4.95000e+00
23.260000	0.362000	5.71000e+00
23.810000	0.543000	6.86000e+00
24.390000	1.010000	8.97000e+00
25.000000	5.050000	1.52000e+01
25.640000	13.500000	4.06000e+00
26.320000	8.280000	1.02000e+00
27.030000	7.440000	5.60000e-01
27.780000	6.460000	3.79000e-01
28.570000	5.830000	2.66000e-01
29.410000	5.350000	2.08000e-01
30.300000	5.030000	1.68000e-01
31.250000	4.740000	1.29000e-01
32.260000	4.510000	1.26000e-01
33.330000	4.360000	1.13000e-01
37.040000	3.970000	2.90000e-02
38.460000	3.870000	2.76000e-02
40.000000	3.780000	2.65000e-02
41.670000	3.710000	2.54000e-02
43.470000	3.640000	2.33000e-02
45.460000	3.580000	2.15000e-02
47.620000	3.530000	2.14000e-02
50.000000	3.480000	2.18000e-02
52.630000	3.440000	2.20000e-02
55.560000	3.400000	2.36000e-02
58.820000	3.370000	2.55000e-02
62.500000	3.340000	2.46000e-02
66.670000	3.310000	2.80000e-02
71.430000	3.280000	2.99000e-02
76.920000	3.260000	3.13000e-02
83.330000	3.240000	3.38000e-02
90.910000	3.220000	3.87000e-02
95.240000	3.210000	4.55000e-02
100.000000	3.200000	3.56000e-02
105.200000	3.200000	2.36000e-02
111.100000	3.190000	1.46000e-02
117.600000	3.180000	6.20000e-03
125.000000	3.180000	4.80000e-03
133.300000	3.172000	3.90000e-03
142.900000	3.167000	3.42000e-03
153.800000	3.162000	3.15000e-03
166.700000	3.157000	2.80000e-03
181.800000	3.153000	2.53000e-03
200.000000	3.149000	2.28000e-03
222.200000	3.146000	2.00000e-03
250.000000	3.143000	1.79000e-03
285.700000	3.140000	1.51000e-03
333.300000	3.138000	1.21000e-03
400.000000	3.136000	9.80000e-04
500.000000	3.134000	7.30000e-04
625.000000	3.133000	5.80000e-04
